'sample interval','PLETH','III'
'0.008 sec','mV','mV'
180000,-0.47450000,0.07700000
180001,-0.49400000,0.10550000
180002,-0.50700000,0.12550000
180003,-0.50700000,0.12900000
180004,-0.50050000,0.12400000
180005,-0.47450000,0.11600000
180006,-0.42900000,0.10000000
180007,-0.36400000,0.07300000
180008,-0.28600000,0.04350000
180009,-0.19500000,0.01700000
180010,-0.10400000,0.00000000
180011,-0.00650000,-0.01600000
180012,0.09100000,-0.03500000
180013,0.17550000,-0.05100000
180014,0.24050000,-0.05650000
180015,0.29250000,-0.04800000
180016,0.31850000,-0.03850000
180017,0.31850000,-0.03450000
180018,0.30550000,-0.02450000
180019,0.27950000,-0.01900000
180020,0.24050000,-0.02200000
180021,0.18850000,-0.02700000
180022,0.13650000,-0.03000000
180023,0.07800000,-0.03500000
180024,0.01950000,-0.04000000
180025,-0.04550000,-0.04050000
180026,-0.10400000,-0.04550000
180027,-0.15600000,-0.05550000
180028,-0.21450000,-0.05700000
180029,-0.27950000,-0.03800000
180030,-0.32500000,0.01500000
180031,-0.37050000,0.11300000
180032,-0.41600000,0.29100000
180033,-0.46150000,0.52450000
180034,-0.48750000,0.58600000
180035,-0.50700000,0.37700000
180036,-0.55100000,0.12250000
180037,-0.56400000,-0.02550000
180038,-0.56400000,-0.08800000
180039,-0.56400000,-0.10750000
180040,-0.54450000,-0.10350000
180041,-0.51850000,-0.09900000
180042,-0.49850000,-0.10850000
180043,-0.48550000,-0.11550000
180044,-0.46600000,-0.10600000
180045,-0.43950000,-0.09200000
180046,-0.42650000,-0.08400000
180047,-0.42000000,-0.08100000
180048,-0.41350000,-0.07700000
180049,-0.42650000,-0.06750000
180050,-0.42650000,-0.05600000
180051,-0.44600000,-0.04700000
180052,-0.46600000,-0.04200000
180053,-0.49200000,-0.02450000
180054,-0.50500000,0.00100000
180055,-0.53150000,0.03450000
180056,-0.55100000,0.07350000
180057,-0.57100000,0.10150000
180058,-0.58400000,0.11950000
180059,-0.58400000,0.12750000
180060,-0.57100000,0.12400000
180061,-0.54450000,0.10900000
180062,-0.49200000,0.09100000
180063,-0.43300000,0.06650000
180064,-0.35400000,0.04000000
180065,-0.25600000,0.01800000
180066,-0.16400000,0.00450000
180067,-0.05900000,-0.00700000
180068,0.03950000,-0.02000000
180069,0.13150000,-0.03250000
180070,0.19700000,-0.04350000
180071,0.24300000,-0.04200000
180072,0.28250000,-0.03700000
180073,0.27600000,-0.03600000
180074,0.26250000,-0.02850000
180075,0.24300000,-0.02250000
180076,0.20350000,-0.02850000
180077,0.14450000,-0.03350000
180078,0.09200000,-0.03150000
180079,0.03300000,-0.03100000
180080,-0.02600000,-0.03150000
180081,-0.07850000,-0.03550000
180082,-0.14400000,-0.04500000
180083,-0.19650000,-0.04950000
180084,-0.25600000,-0.04300000
180085,-0.30150000,-0.02150000
180086,-0.36100000,0.02750000
180087,-0.40650000,0.12850000
180088,-0.44600000,0.33050000
180089,-0.48550000,0.55450000
180090,-0.51850000,0.55350000
180091,-0.53800000,0.31750000
180092,-0.55750000,0.09350000
180093,-0.55750000,-0.02700000
180094,-0.57100000,-0.07800000
180095,-0.55100000,-0.09550000
180096,-0.53800000,-0.09900000
180097,-0.51150000,-0.10700000
180098,-0.48550000,-0.11450000
180099,-0.45900000,-0.11200000
180100,-0.44000000,-0.10250000
180101,-0.40550000,-0.09600000
180102,-0.39850000,-0.08950000
180103,-0.38500000,-0.08250000
180104,-0.38500000,-0.07500000
180105,-0.38500000,-0.06750000
180106,-0.39850000,-0.05600000
180107,-0.40550000,-0.04350000
180108,-0.42600000,-0.03450000
180109,-0.44700000,-0.01950000
180110,-0.46750000,0.00600000
180111,-0.49500000,0.03550000
180112,-0.52250000,0.06700000
180113,-0.52950000,0.09750000
180114,-0.54300000,0.11750000
180115,-0.53600000,0.12000000
180116,-0.52250000,0.11300000
180117,-0.48800000,0.10200000
180118,-0.43300000,0.08750000
180119,-0.37100000,0.06750000
180120,-0.28200000,0.04350000
180121,-0.17200000,0.02000000
180122,-0.06850000,-0.00100000
180123,0.03450000,-0.01650000
180124,0.13050000,-0.02550000
180125,0.22000000,-0.03600000
180126,0.30250000,-0.04100000
180127,0.34400000,-0.03950000
180128,0.37800000,-0.03500000
180129,0.37150000,-0.02600000
180130,0.35750000,-0.01450000
180131,0.33700000,-0.00650000
180132,0.28900000,-0.01400000
180133,0.23400000,-0.02850000
180134,0.17200000,-0.03350000
180135,0.11000000,-0.03450000
180136,0.04800000,-0.03850000
180137,-0.01350000,-0.04250000
180138,-0.07550000,-0.04950000
180139,-0.13050000,-0.05350000
180140,-0.19250000,-0.03850000
180141,-0.25450000,0.00150000
180142,-0.29550000,0.06550000
180143,-0.35050000,0.19750000
180144,-0.38500000,0.43500000
180145,-0.42600000,0.59700000
180146,-0.45350000,0.48350000
180147,-0.48100000,0.22600000
180148,-0.48800000,0.03950000
180149,-0.48800000,-0.05350000
180150,-0.48800000,-0.09250000
180151,-0.46750000,-0.10800000
180152,-0.44700000,-0.11300000
180153,-0.42600000,-0.11200000
180154,-0.39200000,-0.10950000
180155,-0.37100000,-0.10800000
180156,-0.34350000,-0.10100000
180157,-0.33000000,-0.09550000
180158,-0.31600000,-0.08950000
180159,-0.30950000,-0.08100000
180160,-0.30950000,-0.07150000
180161,-0.30950000,-0.06450000
180162,-0.32300000,-0.06050000
180163,-0.34350000,-0.05450000
180164,-0.29950000,-0.03700000
180165,-0.32000000,-0.01450000
180166,-0.35400000,0.01050000
180167,-0.37450000,0.04150000
180168,-0.40200000,0.07550000
180169,-0.40850000,0.10000000
180170,-0.41550000,0.11900000
180171,-0.40850000,0.12200000
180172,-0.39500000,0.10950000
180173,-0.35400000,0.09650000
180174,-0.29300000,0.08100000
180175,-0.22450000,0.05200000
180176,-0.12950000,0.02450000
180177,-0.02700000,0.00500000
180178,0.06800000,-0.01100000
180179,0.16350000,-0.02700000
180180,0.25900000,-0.03800000
180181,0.33400000,-0.04700000
180182,0.39500000,-0.04750000
180183,0.42950000,-0.04200000
180184,0.44300000,-0.03500000
180185,0.43600000,-0.02800000
180186,0.41550000,-0.02550000
180187,0.37500000,-0.02750000
180188,0.33400000,-0.03350000
180189,0.27250000,-0.04300000
180190,0.21800000,-0.05000000
180191,0.15700000,-0.05200000
180192,0.09550000,-0.05450000
180193,0.03400000,-0.05850000
180194,-0.02050000,-0.05700000
180195,-0.08850000,-0.04950000
180196,-0.13600000,-0.03300000
180197,-0.19050000,0.00200000
180198,-0.25200000,0.07550000
180199,-0.29300000,0.24150000
180200,-0.34750000,0.48650000
180201,-0.37450000,0.57600000
180202,-0.41550000,0.39450000
180203,-0.43600000,0.14250000
180204,-0.45650000,-0.01700000
180205,-0.45650000,-0.08500000
180206,-0.45650000,-0.10750000
180207,-0.45650000,-0.11050000
180208,-0.43600000,-0.11300000
180209,-0.41550000,-0.11350000
180210,-0.39500000,-0.10850000
180211,-0.37450000,-0.10250000
180212,-0.36100000,-0.09800000
180213,-0.34050000,-0.09350000
180214,-0.32700000,-0.08950000
180215,-0.32000000,-0.08300000
180216,-0.32000000,-0.08000000
180217,-0.32700000,-0.07350000
180218,-0.34050000,-0.05900000
180219,-0.35400000,-0.04700000
180220,-0.37450000,-0.02800000
180221,-0.38800000,-0.00250000
180222,-0.42250000,0.02500000
180223,-0.43600000,0.05350000
180224,-0.45650000,0.08300000
180225,-0.48350000,0.11000000
180226,-0.49050000,0.12200000
180227,-0.49700000,0.12100000
180228,-0.46250000,0.10450000
180229,-0.43600000,0.08000000
180230,-0.40250000,0.05100000
180231,-0.34200000,0.02650000
180232,-0.27500000,0.01450000
180233,-0.19450000,0.00300000
180234,-0.09400000,-0.01250000
180235,-0.00700000,-0.03000000
180236,0.08050000,-0.04650000
180237,0.16750000,-0.05850000
180238,0.23450000,-0.05800000
180239,0.28800000,-0.05400000
180240,0.31500000,-0.04850000
180241,0.32850000,-0.03900000
180242,0.32150000,-0.03150000
180243,0.30150000,-0.03050000
180244,0.26150000,-0.03200000
180245,0.22800000,-0.03450000
180246,0.17400000,-0.04200000
180247,0.12050000,-0.04750000
180248,0.05350000,-0.04800000
180249,0.00000000,-0.05300000
180250,-0.06050000,-0.05700000
180251,-0.12750000,-0.04900000
180252,-0.18800000,-0.02700000
180253,-0.25500000,0.01450000
180254,-0.30150000,0.10750000
180255,-0.36200000,0.30600000
180256,-0.40900000,0.52200000
180257,-0.44900000,0.51050000
180258,-0.48250000,0.27650000
180259,-0.50300000,0.06650000
180260,-0.51600000,-0.03850000
180261,-0.52950000,-0.07700000
180262,-0.52950000,-0.08950000
180263,-0.50950000,-0.09750000
180264,-0.48950000,-0.10650000
180265,-0.46950000,-0.10850000
180266,-0.42900000,-0.10050000
180267,-0.40250000,-0.08800000
180268,-0.37550000,-0.07200000
180269,-0.35550000,-0.06600000
180270,-0.33550000,-0.06600000
180271,-0.32200000,-0.06400000
180272,-0.31500000,-0.06050000
180273,-0.31500000,-0.05100000
180274,-0.30850000,-0.02950000
180275,-0.32200000,-0.00300000
180276,-0.33550000,0.01400000
180277,-0.34850000,0.02800000
180278,-0.36900000,0.05700000
180279,-0.37550000,0.09550000
180280,-0.38900000,0.12500000
180281,-0.40250000,0.14200000
180282,-0.39550000,0.14900000
180283,-0.37550000,0.14350000
180284,-0.34200000,0.12550000
180285,-0.29500000,0.09750000
180286,-0.22150000,0.06900000
180287,-0.14100000,0.04500000
180288,-0.04700000,0.02500000
180289,0.06700000,0.00650000
180290,0.17400000,-0.01400000
180291,0.27450000,-0.02950000
180292,0.37800000,-0.04300000
180293,0.44550000,-0.04750000
180294,0.50650000,-0.03700000
180295,0.53350000,-0.02450000
180296,0.53350000,-0.01850000
180297,0.52000000,-0.02050000
180298,0.49950000,-0.02000000
180299,0.45900000,-0.02050000
180300,0.41200000,-0.02750000
180301,0.35800000,-0.03150000
180302,0.30400000,-0.03350000
180303,0.23650000,-0.03650000
180304,0.16900000,-0.04350000
180305,0.11500000,-0.05150000
180306,0.04750000,-0.04850000
180307,-0.01350000,-0.03500000
180308,-0.06750000,-0.00250000
180309,-0.12150000,0.06750000
180310,-0.17550000,0.20200000
180311,-0.22250000,0.43200000
180312,-0.26300000,0.59300000
180313,-0.29700000,0.46300000
180314,-0.31700000,0.18650000
180315,-0.32400000,0.00150000
180316,-0.32400000,-0.07600000
180317,-0.31700000,-0.09550000
180318,-0.29700000,-0.10200000
180319,-0.27000000,-0.11600000
180320,-0.24950000,-0.11900000
180321,-0.21600000,-0.10850000
180322,-0.17550000,-0.09700000
180323,-0.14850000,-0.08550000
180324,-0.12150000,-0.08050000
180325,-0.10800000,-0.08100000
180326,-0.08750000,-0.07700000
180327,-0.08750000,-0.06800000
180328,-0.09450000,-0.06050000
180329,-0.10800000,-0.04950000
180330,-0.11450000,-0.03500000
180331,-0.13500000,-0.01300000
180332,-0.15500000,0.01550000
180333,-0.17550000,0.05200000
180334,-0.19550000,0.08650000
180335,-0.20900000,0.11250000
180336,-0.20250000,0.13600000
180337,-0.18900000,0.14850000
180338,-0.15500000,0.14150000
180339,-0.08750000,0.12850000
180340,-0.01350000,0.10100000
180341,0.08800000,0.06950000
180342,0.19600000,0.04900000
180343,0.32400000,0.02700000
180344,0.44550000,0.00450000
180345,0.56050000,-0.01750000
180346,0.65500000,-0.02900000
180347,0.74250000,-0.03350000
180348,0.80350000,-0.04250000
180349,0.83700000,-0.04800000
180350,0.84400000,-0.04800000
180351,0.82350000,-0.04750000
180352,0.79000000,-0.03900000
180353,0.74950000,-0.03000000
180354,0.68850000,-0.03300000
180355,0.63450000,-0.03300000
180356,0.53550000,-0.03450000
180357,0.49050000,-0.03850000
180358,0.43350000,-0.04050000
180359,0.37600000,-0.04550000
180360,0.32500000,-0.05300000
180361,0.27400000,-0.06000000
180362,0.22950000,-0.06300000
180363,0.17850000,-0.04100000
180364,0.14650000,0.03100000
180365,0.10200000,0.15950000
180366,0.06350000,0.35850000
180367,0.02550000,0.56250000
180368,0.00000000,0.54250000
180369,-0.01300000,0.28400000
180370,-0.03200000,0.04850000
180371,-0.03850000,-0.06100000
180372,-0.03200000,-0.09800000
180373,-0.03200000,-0.11000000
180374,-0.01300000,-0.11550000
180375,0.00600000,-0.12100000
180376,0.01900000,-0.12550000
180377,0.03800000,-0.12300000
180378,0.05700000,-0.11000000
180379,0.05700000,-0.09550000
180380,0.07000000,-0.08600000
180381,0.06350000,-0.07900000
180382,0.03800000,-0.07100000
180383,0.02550000,-0.06400000
180384,-0.00650000,-0.05150000
180385,-0.03850000,-0.03350000
180386,-0.07650000,-0.01300000
180387,-0.10850000,0.00800000
180388,-0.14050000,0.03100000
180389,-0.16600000,0.06500000
180390,-0.18500000,0.10100000
180391,-0.19150000,0.12450000
180392,-0.19800000,0.13700000
180393,-0.17850000,0.13650000
180394,-0.14050000,0.12400000
180395,-0.08950000,0.10400000
180396,-0.01950000,0.08150000
180397,0.07650000,0.05500000
180398,0.17850000,0.02750000
180399,0.27400000,0.00550000
180400,0.38850000,-0.01100000
180401,0.48450000,-0.02550000
180402,0.56100000,-0.03950000
180403,0.62450000,-0.05100000
180404,0.66300000,-0.05850000
180405,0.68200000,-0.05400000
180406,0.68200000,-0.04600000
180407,0.66900000,-0.03850000
180408,0.64350000,-0.03000000
180409,0.59900000,-0.03150000
180410,0.56100000,-0.03650000
180411,0.50350000,-0.03700000
180412,0.45250000,-0.03700000
180413,0.39500000,-0.03700000
180414,0.34400000,-0.03900000
180415,0.28650000,-0.05000000
180416,0.23550000,-0.05550000
180417,0.18450000,-0.05250000
180418,0.14000000,-0.03850000
180419,0.08250000,-0.00300000
180420,-0.01800000,0.07400000
180421,-0.06700000,0.21700000
180422,-0.10950000,0.44050000
180423,-0.15200000,0.58950000
180424,-0.18850000,0.47050000
180425,-0.21300000,0.20700000
180426,-0.23150000,0.02000000
180427,-0.23750000,-0.06350000
180428,-0.24350000,-0.10000000
180429,-0.23750000,-0.11500000
180430,-0.23750000,-0.11550000
180431,-0.22500000,-0.11150000
180432,-0.20700000,-0.10650000
180433,-0.20100000,-0.10550000
180434,-0.18850000,-0.10050000
180435,-0.18850000,-0.09350000
180436,-0.18850000,-0.08700000
180437,-0.18850000,-0.08500000
180438,-0.20700000,-0.07700000
180439,-0.21900000,-0.06600000
180440,-0.23150000,-0.05600000
180441,-0.25550000,-0.04300000
180442,-0.28000000,-0.02550000
180443,-0.30450000,-0.00550000
180444,-0.33500000,0.02050000
180445,-0.35950000,0.05100000
180446,-0.37750000,0.08300000
180447,-0.39000000,0.11050000
180448,-0.39600000,0.12550000
180449,-0.39000000,0.12850000
180450,-0.37150000,0.11800000
180451,-0.33500000,0.09450000
180452,-0.29250000,0.06500000
180453,-0.23150000,0.03750000
180454,-0.15200000,0.01900000
180455,-0.06050000,0.00450000
180456,0.02450000,-0.01100000
180457,0.12200000,-0.02500000
180458,0.19500000,-0.03700000
180459,0.26250000,-0.05250000
180460,0.31100000,-0.05700000
180461,0.32950000,-0.05100000
180462,0.34750000,-0.03900000
180463,0.32950000,-0.02750000
180464,0.30500000,-0.01350000
180465,0.26850000,-0.00750000
180466,0.22550000,-0.02250000
180467,0.18300000,-0.03650000
180468,0.12800000,-0.03750000
180469,0.07950000,-0.04200000
180470,0.03050000,-0.04900000
180471,-0.02400000,-0.05350000
180472,-0.07300000,-0.05700000
180473,-0.12750000,-0.06000000
180474,-0.18250000,-0.05450000
180475,-0.23750000,-0.02700000
180476,-0.29850000,0.02400000
180477,-0.34700000,0.12200000
180478,-0.40800000,0.32300000
180479,-0.47500000,0.55300000
180480,-0.52400000,0.56400000
180481,-0.56650000,0.33250000
180482,-0.59700000,0.09600000
180483,-0.60900000,-0.03450000
180484,-0.65600000,-0.09050000
180485,-0.64400000,-0.10950000
180486,-0.60850000,-0.11000000
180487,-0.56700000,-0.11000000
180488,-0.52000000,-0.10950000
180489,-0.47850000,-0.10500000
180490,-0.43150000,-0.10050000
180491,-0.40200000,-0.09400000
180492,-0.39000000,-0.08600000
180493,-0.37250000,-0.07850000
180494,-0.37800000,-0.06800000
180495,-0.39000000,-0.06250000
180496,-0.40800000,-0.06250000
180497,-0.41950000,-0.06250000
180498,-0.43750000,-0.05350000
180499,-0.45500000,-0.02900000
180500,-0.47850000,0.00100000
180501,-0.49650000,0.03350000
180502,-0.52000000,0.06650000
180503,-0.53200000,0.09550000
180504,-0.54350000,0.11300000
180505,-0.54350000,0.12350000
180506,-0.53200000,0.12100000
180507,-0.50250000,0.10650000
180508,-0.46700000,0.08900000
180509,-0.40800000,0.06750000
180510,-0.33100000,0.04050000
180511,-0.24850000,0.01600000
180512,-0.15400000,-0.00500000
180513,-0.05950000,-0.02200000
180514,0.02950000,-0.03150000
180515,0.10600000,-0.03800000
180516,0.15900000,-0.04050000
180517,0.20050000,-0.04550000
180518,0.22400000,-0.04900000
180519,0.22400000,-0.03900000
180520,0.20650000,-0.02250000
180521,0.17700000,-0.01250000
180522,0.14150000,-0.01100000
180523,0.10600000,-0.01700000
180524,0.05300000,-0.03050000
180525,0.00000000,-0.03800000
180526,-0.05350000,-0.03750000
180527,-0.10050000,-0.04400000
180528,-0.15950000,-0.05750000
180529,-0.20700000,-0.06250000
180530,-0.25400000,-0.05300000
180531,-0.31350000,-0.02300000
180532,-0.35450000,0.03100000
180533,-0.39600000,0.12900000
180534,-0.43750000,0.33050000
180535,-0.47250000,0.56050000
180536,-0.49650000,0.56750000
180537,-0.52000000,0.33300000
180538,-0.52600000,0.10100000
180539,-0.52600000,-0.02700000
180540,-0.53200000,-0.07900000
180541,-0.51400000,-0.09350000
180542,-0.50250000,-0.09800000
180543,-0.47850000,-0.10700000
180544,-0.45500000,-0.11350000
180545,-0.43150000,-0.11200000
180546,-0.40800000,-0.10450000
180547,-0.38400000,-0.09700000
180548,-0.35150000,-0.08900000
180549,-0.33950000,-0.07500000
180550,-0.33950000,-0.06600000
180551,-0.33350000,-0.06600000
180552,-0.34550000,-0.06550000
180553,-0.35150000,-0.06050000
180554,-0.36900000,-0.04550000
180555,-0.39300000,-0.01900000
180556,-0.41700000,0.00800000
180557,-0.43450000,0.03250000
180558,-0.45250000,0.05600000
180559,-0.47650000,0.07950000
180560,-0.48800000,0.10400000
180561,-0.48800000,0.11950000
180562,-0.47650000,0.11650000
180563,-0.45250000,0.10200000
180564,-0.40500000,0.08750000
180565,-0.35700000,0.06850000
180566,-0.27400000,0.03850000
180567,-0.19650000,0.00950000
180568,-0.09550000,-0.00700000
180569,-0.01200000,-0.01700000
180570,0.08350000,-0.02800000
180571,0.16650000,-0.03500000
180572,0.23200000,-0.03850000
180573,0.27400000,-0.04500000
180574,0.29750000,-0.04250000
180575,0.30950000,-0.03600000
180576,0.29750000,-0.02850000
180577,0.26800000,-0.02100000
180578,0.23800000,-0.02150000
180579,0.18450000,-0.02550000
180580,0.13700000,-0.02750000
180581,0.08350000,-0.03300000
180582,0.02950000,-0.03650000
180583,-0.01800000,-0.03900000
180584,-0.07150000,-0.05100000
180585,-0.13100000,-0.06100000
180586,-0.17250000,-0.05300000
180587,-0.22650000,-0.02500000
180588,-0.26800000,0.02350000
180589,-0.30950000,0.11900000
180590,-0.35150000,0.31600000
180591,-0.38100000,0.55750000
180592,-0.40500000,0.58000000
180593,-0.42250000,0.35150000
180594,-0.43450000,0.11900000
180595,-0.44050000,-0.01650000
180596,-0.42850000,-0.08050000
180597,-0.42250000,-0.10250000
180598,-0.41100000,-0.10750000
180599,-0.38700000,-0.11550000
180600,-0.35150000,-0.12050000
180601,-0.32750000,-0.11500000
180602,-0.30350000,-0.10150000
180603,-0.28000000,-0.09050000
180604,-0.26800000,-0.08400000
180605,-0.25600000,-0.08500000
180606,-0.25600000,-0.08250000
180607,-0.26200000,-0.07300000
180608,-0.26800000,-0.06450000
180609,-0.28600000,-0.06050000
180610,-0.30950000,-0.05050000
180611,-0.33950000,-0.02700000
180612,-0.31750000,-0.00050000
180613,-0.34300000,0.02350000
180614,-0.35600000,0.05050000
180615,-0.38150000,0.08300000
180616,-0.38750000,0.11000000
180617,-0.38750000,0.12000000
180618,-0.36850000,0.11400000
180619,-0.33700000,0.09900000
180620,-0.29250000,0.07900000
180621,-0.22850000,0.05950000
180622,-0.15250000,0.03850000
180623,-0.06950000,0.01950000
180624,0.03850000,0.00000000
180625,0.13400000,-0.02150000
180626,0.23550000,-0.03450000
180627,0.31200000,-0.04200000
180628,0.38200000,-0.04600000
180629,0.42000000,-0.04400000
180630,0.45150000,-0.04300000
180631,0.45150000,-0.03550000
180632,0.44550000,-0.03000000
180633,0.42000000,-0.03450000
180634,0.38800000,-0.03800000
180635,0.35000000,-0.03900000
180636,0.30550000,-0.03750000
180637,0.24800000,-0.03550000
180638,0.18450000,-0.03700000
180639,0.11450000,-0.04650000
180640,0.03850000,-0.05700000
180641,-0.05050000,-0.05850000
180642,-0.13350000,-0.05150000
180643,-0.20950000,-0.02750000
180644,-0.26700000,0.01850000
180645,-0.31150000,0.10700000
180646,-0.35600000,0.29900000
180647,-0.36850000,0.54400000
180648,-0.36850000,0.58400000
180649,-0.36850000,0.36400000
180650,-0.36250000,0.11650000
180651,-0.35600000,-0.02700000
180652,-0.34300000,-0.08650000
180653,-0.33700000,-0.10450000
180654,-0.32400000,-0.11100000
180655,-0.29850000,-0.11550000
180656,-0.28600000,-0.12050000
180657,-0.26050000,-0.11600000
180658,-0.24800000,-0.10800000
180659,-0.23500000,-0.10050000
180660,-0.21600000,-0.09200000
180661,-0.20350000,-0.08200000
180662,-0.20350000,-0.07650000
180663,-0.20950000,-0.07350000
180664,-0.22250000,-0.07250000
180665,-0.24150000,-0.06750000
180666,-0.26050000,-0.05150000
180667,-0.28600000,-0.02400000
180668,-0.31750000,-0.00200000
180669,-0.34300000,0.02450000
180670,-0.36250000,0.05550000
180671,-0.38750000,0.09000000
180672,-0.40700000,0.11550000
180673,-0.41300000,0.11800000
180674,-0.40050000,0.10750000
180675,-0.38750000,0.09500000
180676,-0.31800000,0.07800000
180677,-0.25800000,0.05750000
180678,-0.19850000,0.03550000
180679,-0.09900000,0.01550000
180680,-0.00650000,-0.00550000
180681,0.08650000,-0.02500000
180682,0.19250000,-0.03600000
180683,0.27850000,-0.04500000
180684,0.35800000,-0.05300000
180685,0.41100000,-0.05800000
180686,0.44400000,-0.05200000
180687,0.46400000,-0.04200000
180688,0.47050000,-0.03500000
180689,0.44400000,-0.02800000
180690,0.41100000,-0.02400000
180691,0.37100000,-0.02700000
180692,0.31800000,-0.03500000
180693,0.26500000,-0.04000000
180694,0.21200000,-0.04200000
180695,0.14600000,-0.04900000
180696,0.07950000,-0.05150000
180697,0.02000000,-0.04950000
180698,-0.04600000,-0.04900000
180699,-0.10600000,-0.03750000
180700,-0.16550000,0.00050000
180701,-0.21200000,0.08500000
180702,-0.25800000,0.26350000
180703,-0.29800000,0.51250000
180704,-0.33100000,0.58100000
180705,-0.35750000,0.38250000
180706,-0.37100000,0.14350000
180707,-0.38400000,-0.00200000
180708,-0.38400000,-0.06900000
180709,-0.37750000,-0.09500000
180710,-0.36400000,-0.10550000
180711,-0.34450000,-0.11000000
180712,-0.33100000,-0.10450000
180713,-0.31100000,-0.09900000
180714,-0.29150000,-0.09700000
180715,-0.27150000,-0.09450000
180716,-0.25800000,-0.08800000
180717,-0.24500000,-0.07700000
180718,-0.23850000,-0.07650000
180719,-0.23850000,-0.07300000
180720,-0.24500000,-0.06250000
180721,-0.25150000,-0.05150000
180722,-0.27800000,-0.04150000
180723,-0.28450000,-0.02700000
180724,-0.31100000,0.00000000
180725,-0.33750000,0.02900000
180726,-0.35100000,0.05650000
180727,-0.37750000,0.08800000
180728,-0.39050000,0.10850000
180729,-0.39750000,0.11700000
180730,-0.38400000,0.11800000
180731,-0.36400000,0.10950000
180732,-0.32450000,0.09450000
180733,-0.27150000,0.07000000
180734,-0.19200000,0.04050000
180735,-0.10600000,0.01850000
180736,-0.00650000,0.00650000
180737,0.09950000,-0.00950000
180738,0.19900000,-0.02900000
180739,0.29150000,-0.04350000
180740,0.35850000,-0.04900000
180741,0.41800000,-0.03900000
180742,0.45800000,-0.03300000
180743,0.47800000,-0.03200000
180744,0.47150000,-0.02300000
180745,0.44450000,-0.01500000
180746,0.41800000,-0.02300000
180747,0.37150000,-0.03100000
180748,0.31850000,-0.03500000
180749,0.26550000,-0.03450000
180750,0.20550000,-0.03000000
180751,0.13950000,-0.03700000
180752,0.08600000,-0.05200000
180753,0.02650000,-0.05500000
180754,-0.03350000,-0.04900000
180755,-0.09300000,-0.02900000
180756,-0.14650000,0.01500000
180757,-0.19950000,0.10050000
180758,-0.24600000,0.27600000
180759,-0.29900000,0.52350000
180760,-0.32550000,0.59600000
180761,-0.35200000,0.40150000
180762,-0.37200000,0.15950000
180763,-0.38550000,0.00650000
180764,-0.37850000,-0.06500000
180765,-0.37200000,-0.09150000
180766,-0.35900000,-0.10600000
180767,-0.33200000,-0.11800000
180768,-0.30550000,-0.11900000
180769,-0.28550000,-0.10700000
180770,-0.26600000,-0.09750000
180771,-0.24600000,-0.09300000
180772,-0.22600000,-0.08600000
180773,-0.22600000,-0.07600000
180774,-0.23250000,-0.07250000
180775,-0.23250000,-0.06950000
180776,-0.24600000,-0.06600000
180777,-0.25900000,-0.06250000
180778,-0.28550000,-0.05500000
180779,-0.29250000,-0.03300000
180780,-0.31250000,-0.00500000
180781,-0.31900000,0.02050000
180782,-0.30550000,0.05000000
180783,-0.29250000,0.08250000
180784,-0.27250000,0.10500000
180785,-0.24600000,0.11800000
180786,-0.21950000,0.11950000
180787,-0.17300000,0.10600000
180788,-0.11950000,0.08600000
180789,-0.05350000,0.06500000
180790,0.01300000,0.04550000
180791,0.09300000,0.02200000
180792,0.18550000,0.00550000
180793,0.27850000,-0.01100000
180794,0.37850000,-0.02400000
180795,0.45800000,-0.03650000
180796,0.53750000,-0.04750000
180797,0.59100000,-0.04550000
180798,0.61050000,-0.04050000
180799,0.62400000,-0.03950000
180800,0.60400000,-0.03350000
180801,0.57100000,-0.02400000
180802,0.53100000,-0.01850000
180803,0.47800000,-0.02400000
180804,0.40400000,-0.03650000
180805,0.33550000,-0.03950000
180806,0.27400000,-0.03600000
180807,0.21900000,-0.04400000
180808,0.14400000,-0.05600000
180809,0.09600000,-0.05650000
180810,0.03450000,-0.04450000
180811,-0.02750000,-0.02350000
180812,-0.08200000,0.01850000
180813,-0.13700000,0.11250000
180814,-0.19150000,0.31000000
180815,-0.23250000,0.55050000
180816,-0.26700000,0.58100000
180817,-0.30100000,0.35850000
180818,-0.31450000,0.12200000
180819,-0.32150000,-0.01450000
180820,-0.32850000,-0.07900000
180821,-0.31450000,-0.10100000
180822,-0.31450000,-0.10600000
180823,-0.29400000,-0.11150000
180824,-0.27350000,-0.11550000
180825,-0.25300000,-0.11150000
180826,-0.23950000,-0.10650000
180827,-0.22550000,-0.10550000
180828,-0.21200000,-0.09850000
180829,-0.21200000,-0.08450000
180830,-0.21200000,-0.07500000
180831,-0.21900000,-0.07300000
180832,-0.23250000,-0.07250000
180833,-0.25300000,-0.06750000
180834,-0.27350000,-0.05350000
180835,-0.29400000,-0.03100000
180836,-0.32150000,-0.00450000
180837,-0.34900000,0.02200000
180838,-0.36950000,0.04900000
180839,-0.39000000,0.07550000
180840,-0.40350000,0.09950000
180841,-0.40350000,0.11350000
180842,-0.39000000,0.10950000
180843,-0.37650000,0.09450000
180844,-0.32150000,0.07450000
180845,-0.26000000,0.04950000
180846,-0.18450000,0.02600000
180847,-0.08200000,0.01100000
180848,0.01400000,-0.00400000
180849,0.11650000,-0.02300000
180850,0.23300000,-0.04200000
180851,0.31500000,-0.05650000
180852,0.39000000,-0.06050000
180853,0.43800000,-0.05700000
180854,0.47900000,-0.05450000
180855,0.48600000,-0.04750000
180856,0.47250000,-0.03250000
180857,0.45200000,-0.03100000
180858,0.41050000,-0.04000000
180859,0.36300000,-0.04750000
180860,0.31500000,-0.04750000
180861,0.25350000,-0.04400000
180862,0.19150000,-0.04600000
180863,0.12350000,-0.05100000
180864,0.05500000,-0.05700000
180865,-0.01350000,-0.06150000
180866,-0.07500000,-0.05450000
180867,-0.13700000,-0.02700000
180868,-0.22500000,0.02250000
180869,-0.27800000,0.12200000
180870,-0.33800000,0.32850000
180871,-0.37750000,0.53800000
180872,-0.41750000,0.50650000
180873,-0.45050000,0.26800000
180874,-0.47050000,0.05950000
180875,-0.49000000,-0.04600000
180876,-0.49700000,-0.08550000
180877,-0.49700000,-0.10050000
180878,-0.48350000,-0.10700000
180879,-0.46350000,-0.11200000
180880,-0.44400000,-0.11350000
180881,-0.41050000,-0.10650000
180882,-0.38400000,-0.09150000
180883,-0.37100000,-0.07950000
180884,-0.33800000,-0.07750000
180885,-0.33100000,-0.07550000
180886,-0.31800000,-0.06950000
180887,-0.31800000,-0.06600000
180888,-0.31800000,-0.05850000
180889,-0.32450000,-0.04400000
180890,-0.34450000,-0.02950000
180891,-0.36450000,-0.00750000
180892,-0.38400000,0.01950000
180893,-0.40400000,0.04850000
180894,-0.43050000,0.08300000
180895,-0.44400000,0.11250000
180896,-0.45700000,0.13200000
180897,-0.45700000,0.13350000
180898,-0.45050000,0.12200000
180899,-0.42400000,0.10150000
180900,-0.37750000,0.07800000
180901,-0.32450000,0.05600000
180902,-0.25150000,0.03600000
180903,-0.15900000,0.01800000
180904,-0.05950000,-0.00150000
180905,0.04000000,-0.02300000
180906,0.13900000,-0.03900000
180907,0.23850000,-0.04700000
180908,0.31800000,-0.04800000
180909,0.37100000,-0.04550000
180910,0.40400000,-0.03850000
180911,0.41750000,-0.02900000
180912,0.41750000,-0.01700000
180913,0.39100000,-0.01600000
180914,0.35800000,-0.02400000
180915,0.30500000,-0.02950000
180916,0.25200000,-0.03150000
180917,0.19200000,-0.03350000
180918,0.13250000,-0.03650000
180919,0.06650000,-0.04050000
180920,0.00000000,-0.04700000
180921,-0.05950000,-0.04900000
180922,-0.11900000,-0.03950000
180923,-0.18550000,-0.00850000
180924,-0.25150000,0.06050000
180925,-0.29800000,0.19500000
180926,-0.35100000,0.42900000
180927,-0.39750000,0.59100000
180928,-0.43700000,0.46450000
180929,-0.45700000,0.19200000
180930,-0.47700000,0.00900000
180931,-0.47700000,-0.06350000
180932,-0.45050000,-0.09250000
180933,-0.42450000,-0.10650000
180934,-0.38550000,-0.11300000
180935,-0.34600000,-0.10850000
180936,-0.30050000,-0.10400000
180937,-0.26150000,-0.10050000
180938,-0.22850000,-0.09200000
180939,-0.20900000,-0.08200000
180940,-0.18300000,-0.07650000
180941,-0.18300000,-0.07150000
180942,-0.18950000,-0.06450000
180943,-0.20250000,-0.06250000
180944,-0.22200000,-0.06050000
180945,-0.24850000,-0.04550000
180946,-0.27450000,-0.02050000
180947,-0.29400000,0.00600000
180948,-0.31350000,0.03250000
180949,-0.33300000,0.06300000
180950,-0.34600000,0.09600000
180951,-0.34600000,0.12150000
180952,-0.33300000,0.13850000
180953,-0.30050000,0.14650000
180954,-0.25500000,0.13150000
180955,-0.18950000,0.10250000
180956,-0.10450000,0.07800000
180957,0.00650000,0.05050000
180958,0.13050000,0.02100000
180959,0.24800000,0.00000000
180960,0.36550000,-0.01400000
180961,0.47000000,-0.02400000
180962,0.56150000,-0.03200000
180963,0.62700000,-0.04350000
180964,0.66600000,-0.05100000
180965,0.67900000,-0.04600000
180966,0.67900000,-0.03850000
180967,0.65300000,-0.02900000
180968,0.61400000,-0.02100000
180969,0.57450000,-0.02900000
180970,0.52250000,-0.03850000
180971,0.45700000,-0.04400000
180972,0.39850000,-0.04350000
180973,0.34600000,-0.04050000
180974,0.29400000,-0.04000000
180975,0.24150000,-0.04350000
180976,0.18300000,-0.05500000
180977,0.13050000,-0.06000000
180978,0.07850000,-0.04100000
180979,0.03250000,0.01350000
180980,-0.01950000,0.11900000
180981,-0.05250000,0.29700000
180982,-0.08500000,0.52850000
180983,-0.11750000,0.58200000
180984,-0.14400000,0.35650000
180985,-0.15050000,0.09700000
180986,-0.15700000,-0.03850000
180987,-0.15050000,-0.08650000
180988,-0.13700000,-0.10150000
180989,-0.12400000,-0.11300000
180990,-0.09800000,-0.12600000
180991,-0.07850000,-0.12400000
180992,-0.05900000,-0.10750000
180993,-0.03250000,-0.09900000
180994,-0.01950000,-0.09700000
180995,-0.01300000,-0.09100000
180996,-0.05000000,-0.07750000
180997,-0.05000000,-0.06800000
180998,-0.06250000,-0.06250000
180999,-0.06850000,-0.05450000
181000,-0.08750000,-0.03200000
181001,-0.11250000,-0.01000000
181002,-0.13750000,0.00350000
181003,-0.16250000,0.02200000
181004,-0.18100000,0.05700000
181005,-0.20600000,0.09550000
181006,-0.20600000,0.12200000
181007,-0.21250000,0.14100000
181008,-0.19350000,0.14700000
181009,-0.16850000,0.13500000
181010,-0.10600000,0.11950000
181011,-0.03100000,0.09350000
181012,0.05650000,0.05850000
181013,0.16250000,0.03150000
181014,0.27500000,0.01050000
181015,0.38750000,-0.00850000
181016,0.48750000,-0.03100000
181017,0.57500000,-0.05050000
181018,0.64400000,-0.06000000
181019,0.67500000,-0.06100000
181020,0.70000000,-0.05700000
181021,0.68750000,-0.05300000
181022,0.66900000,-0.04400000
181023,0.61900000,-0.03300000
181024,0.57500000,-0.02400000
181025,0.51900000,-0.02200000
181026,0.45650000,-0.02550000
181027,0.39400000,-0.03300000
181028,0.33150000,-0.03850000
181029,0.26900000,-0.04050000
181030,0.20650000,-0.04550000
181031,0.15650000,-0.05550000
181032,0.10000000,-0.05950000
181033,0.05000000,-0.05550000
181034,-0.01250000,-0.03200000
181035,-0.06250000,0.03950000
181036,-0.10600000,0.17150000
181037,-0.15600000,0.38800000
181038,-0.18750000,0.59500000
181039,-0.21850000,0.56200000
181040,-0.25000000,0.30600000
181041,-0.26250000,0.07400000
181042,-0.27500000,-0.04350000
181043,-0.26850000,-0.09100000
181044,-0.26250000,-0.11300000
181045,-0.24350000,-0.11600000
181046,-0.23100000,-0.11350000
181047,-0.21250000,-0.11350000
181048,-0.20000000,-0.10850000
181049,-0.18100000,-0.10050000
181050,-0.16850000,-0.09550000
181051,-0.17500000,-0.09300000
181052,-0.17500000,-0.08500000
181053,-0.18750000,-0.07300000
181054,-0.20000000,-0.06450000
181055,-0.21850000,-0.06050000
181056,-0.25000000,-0.05050000
181057,-0.27500000,-0.02800000
181058,-0.30000000,-0.00250000
181059,-0.33100000,0.02000000
181060,-0.38750000,0.04650000
181061,-0.40600000,0.07800000
181062,-0.42500000,0.10850000
181063,-0.43100000,0.13150000
181064,-0.43750000,0.13700000
181065,-0.41850000,0.12200000
181066,-0.38100000,0.10000000
181067,-0.33100000,0.07800000
181068,-0.26250000,0.05100000
181069,-0.17500000,0.02600000
181070,-0.08100000,0.01200000
181071,0.01900000,-0.00450000
181072,0.11900000,-0.02700000
181073,0.20000000,-0.04050000
181074,0.26900000,-0.04350000
181075,0.32500000,-0.04800000
181076,0.34400000,-0.05050000
181077,0.35650000,-0.04450000
181078,0.35000000,-0.03500000
181079,0.31900000,-0.02900000
181080,0.28750000,-0.01300000
181081,0.24400000,-0.00300000
181082,0.20000000,-0.01600000
181083,0.15000000,-0.03550000
181084,0.09400000,-0.04200000
181085,0.03750000,-0.04050000
181086,-0.03100000,-0.04000000
181087,-0.10600000,-0.04500000
181088,-0.17500000,-0.04950000
181089,-0.24350000,-0.05300000
181090,-0.30600000,-0.04500000
181091,-0.36250000,-0.01100000
181092,-0.41250000,0.05500000
181093,-0.45000000,0.18050000
181094,-0.47500000,0.40650000
181095,-0.49350000,0.59250000
181096,-0.50600000,0.51600000
181097,-0.51250000,0.26600000
181098,-0.51250000,0.06050000
181099,-0.50600000,-0.05150000
181100,-0.50600000,-0.09950000
181101,-0.49350000,-0.11100000
181102,-0.48100000,-0.10100000
181103,-0.46250000,-0.09750000
181104,-0.43750000,-0.10300000
181105,-0.42500000,-0.10100000
181106,-0.40600000,-0.09200000
181107,-0.40000000,-0.08450000
181108,-0.39350000,-0.08200000
181109,-0.40000000,-0.07900000
181110,-0.40600000,-0.07150000
181111,-0.42500000,-0.06400000
181112,-0.43750000,-0.05700000
181113,-0.46250000,-0.05100000
181114,-0.48750000,-0.03700000
181115,-0.50600000,-0.01650000
181116,-0.53100000,0.01350000
181117,-0.56250000,0.04650000
181118,-0.58750000,0.07750000
181119,-0.59350000,0.10600000
181120,-0.60600000,0.12850000
181121,-0.60600000,0.13250000
181122,-0.59350000,0.12050000
181123,-0.55600000,0.10100000
181124,-0.53950000,0.07950000
181125,-0.46900000,0.05250000
181126,-0.37900000,0.02850000
181127,-0.27650000,0.01350000
181128,-0.16700000,0.00250000
181129,-0.06450000,-0.01400000
181130,0.03850000,-0.02900000
181131,0.12200000,-0.03750000
181132,0.18600000,-0.03900000
181133,0.23100000,-0.03750000
181134,0.26300000,-0.03650000
181135,0.25650000,-0.02950000
181136,0.24400000,-0.01500000
181137,0.21150000,-0.00900000
181138,0.16650000,-0.01950000
181139,0.12200000,-0.03250000
181140,0.05750000,-0.03650000
181141,-0.00650000,-0.03350000
181142,-0.06450000,-0.03500000
181143,-0.13500000,-0.04200000
181144,-0.19300000,-0.04750000
181145,-0.25700000,-0.04550000
181146,-0.32150000,-0.03800000
181147,-0.37900000,-0.01950000
181148,-0.43700000,0.02550000
181149,-0.48200000,0.11850000
181150,-0.53950000,0.31250000
181151,-0.56550000,0.55050000
181152,-0.61050000,0.58000000
181153,-0.62300000,0.35850000
181154,-0.62950000,0.12350000
181155,-0.62950000,-0.01350000
181156,-0.62950000,-0.07450000
181157,-0.61650000,-0.09450000
181158,-0.59100000,-0.09750000
181159,-0.56550000,-0.10050000
181160,-0.52700000,-0.11150000
181161,-0.50750000,-0.11300000
181162,-0.47550000,-0.09900000
181163,-0.45600000,-0.08300000
181164,-0.44350000,-0.07700000
181165,-0.43700000,-0.07500000
181166,-0.43700000,-0.06800000
181167,-0.44350000,-0.06600000
181168,-0.45000000,-0.06550000
181169,-0.47550000,-0.06000000
181170,-0.48850000,-0.04100000
181171,-0.52050000,-0.01650000
181172,-0.54600000,0.00600000
181173,-0.56550000,0.03250000
181174,-0.58450000,0.06300000
181175,-0.60400000,0.09400000
181176,-0.61650000,0.11300000
181177,-0.61650000,0.12000000
181178,-0.61650000,0.11450000
181179,-0.59100000,0.10400000
181180,-0.54600000,0.08700000
181181,-0.48200000,0.06600000
181182,-0.40500000,0.04400000
181183,-0.31500000,0.02200000
181184,-0.21850000,0.00650000
181185,-0.10950000,-0.01100000
181186,0.00000000,-0.02850000
181187,0.08950000,-0.03900000
181188,0.18700000,-0.04650000
181189,0.23700000,-0.04050000
181190,0.27450000,-0.02850000
181191,0.29950000,-0.02550000
181192,0.29300000,-0.02350000
181193,0.26800000,-0.01600000
181194,0.24300000,-0.01900000
181195,0.19950000,-0.02250000
181196,0.13700000,-0.02200000
181197,0.08100000,-0.02750000
181198,0.02500000,-0.03450000
181199,-0.04350000,-0.03900000
181200,-0.10600000,-0.04750000
181201,-0.16850000,-0.05100000
181202,-0.23050000,-0.05100000
181203,-0.29300000,-0.04150000
181204,-0.34900000,-0.01050000
181205,-0.39900000,0.04900000
181206,-0.45500000,0.18050000
181207,-0.49250000,0.42350000
181208,-0.53000000,0.60100000
181209,-0.55500000,0.50450000
181210,-0.57350000,0.25050000
181211,-0.57950000,0.05400000
181212,-0.58600000,-0.05200000
181213,-0.56750000,-0.09800000
181214,-0.56100000,-0.10850000
181215,-0.53600000,-0.10900000
181216,-0.50500000,-0.10950000
181217,-0.48600000,-0.10450000
181218,-0.45500000,-0.09700000
181219,-0.43000000,-0.09250000
181220,-0.41150000,-0.09500000
181221,-0.40500000,-0.09350000
181222,-0.39900000,-0.08600000
181223,-0.39250000,-0.07900000
181224,-0.40500000,-0.07000000
181225,-0.42400000,-0.06450000
181226,-0.43000000,-0.05950000
181227,-0.45500000,-0.03850000
181228,-0.47400000,-0.00500000
181229,-0.51100000,0.01800000
181230,-0.53000000,0.03850000
181231,-0.54850000,0.07600000
181232,-0.56750000,0.10350000
181233,-0.57350000,0.11800000
181234,-0.57350000,0.12000000
181235,-0.56100000,0.11250000
181236,-0.53600000,0.09450000
181237,-0.49250000,0.06900000
181238,-0.44250000,0.04200000
181239,-0.36800000,0.02200000
181240,-0.28050000,0.00650000
181241,-0.18700000,-0.01100000
181242,-0.08700000,-0.02700000
181243,0.00650000,-0.03800000
181244,0.09350000,-0.04750000
181245,0.16200000,-0.05050000
181246,0.21850000,-0.04450000
181247,0.26200000,-0.03650000
181248,0.27450000,-0.03300000
181249,0.26800000,-0.02950000
181250,0.24300000,-0.03150000
181251,0.21200000,-0.03500000
181252,0.24100000,-0.03700000
181253,0.18250000,-0.04000000
181254,0.12400000,-0.04000000
181255,0.06500000,-0.04200000
181256,-0.00650000,-0.05300000
181257,-0.07150000,-0.05850000
181258,-0.13050000,-0.05850000
181259,-0.19550000,-0.05150000
181260,-0.25400000,-0.02950000
181261,-0.30600000,0.00950000
181262,-0.36500000,0.08300000
181263,-0.41050000,0.25300000
181264,-0.45600000,0.49600000
181265,-0.49500000,0.56450000
181266,-0.52100000,0.37100000
181267,-0.54100000,0.13100000
181268,-0.54750000,-0.01550000
181269,-0.55400000,-0.07700000
181270,-0.54100000,-0.09400000
181271,-0.52750000,-0.10000000
181272,-0.51450000,-0.10250000
181273,-0.47550000,-0.09950000
181274,-0.44950000,-0.09900000
181275,-0.42350000,-0.09500000
181276,-0.39750000,-0.08100000
181277,-0.37800000,-0.07050000
181278,-0.35200000,-0.07300000
181279,-0.33900000,-0.07100000
181280,-0.33900000,-0.06450000
181281,-0.33900000,-0.06200000
181282,-0.34550000,-0.05500000
181283,-0.36500000,-0.03350000
181284,-0.37800000,-0.00750000
181285,-0.39750000,0.01550000
181286,-0.41050000,0.03800000
181287,-0.43000000,0.06500000
181288,-0.44300000,0.09750000
181289,-0.46250000,0.12650000
181290,-0.47550000,0.14400000
181291,-0.47550000,0.14400000
181292,-0.46900000,0.12900000
181293,-0.43000000,0.09900000
181294,-0.39750000,0.06650000
181295,-0.33250000,0.04200000
181296,-0.24750000,0.02550000
181297,-0.15650000,0.01400000
181298,-0.05850000,0.00000000
181299,0.03900000,-0.01500000
181300,0.15000000,-0.02400000
181301,0.22800000,-0.03250000
181302,0.30650000,-0.03450000
181303,0.35850000,-0.02800000
181304,0.39750000,-0.01850000
181305,0.41050000,-0.00900000
181306,0.41050000,-0.00350000
181307,0.37800000,-0.01200000
181308,0.33900000,-0.02000000
181309,0.29950000,-0.02250000
181310,0.24100000,-0.03050000
181311,0.16950000,-0.03800000
181312,0.11100000,-0.04000000
181313,0.04550000,-0.03700000
181314,-0.02600000,-0.03700000
181315,-0.09100000,-0.03700000
181316,-0.08750000,-0.03100000
181317,-0.14750000,-0.00200000
181318,-0.21500000,0.05850000
181319,-0.26200000,0.19650000
181320,-0.31550000,0.45350000
181321,-0.35600000,0.62000000
181322,-0.40300000,0.48650000
181323,-0.42300000,0.21750000
181324,-0.43650000,0.02950000
181325,-0.45000000,-0.05600000
181326,-0.43650000,-0.08350000
181327,-0.43000000,-0.09300000
181328,-0.39650000,-0.09600000
181329,-0.36950000,-0.09950000
181330,-0.34250000,-0.10450000
181331,-0.30250000,-0.10550000
181332,-0.27550000,-0.10200000
181333,-0.24200000,-0.09600000
181334,-0.21500000,-0.08950000
181335,-0.20800000,-0.08250000
181336,-0.18800000,-0.07500000
181337,-0.18800000,-0.06950000
181338,-0.19500000,-0.06600000
181339,-0.20800000,-0.05850000
181340,-0.21500000,-0.04000000
181341,-0.23500000,-0.01300000
181342,-0.25500000,0.01200000
181343,-0.26850000,0.03900000
181344,-0.28900000,0.07150000
181345,-0.29550000,0.09800000
181346,-0.29550000,0.11450000
181347,-0.27550000,0.11800000
181348,-0.24850000,0.11050000
181349,-0.19500000,0.09450000
181350,-0.12750000,0.07450000
181351,-0.02700000,0.04950000
181352,0.08050000,0.02450000
181353,0.20150000,0.00650000
181354,0.31600000,-0.00650000
181355,0.43000000,-0.01850000
181356,0.53750000,-0.03250000
181357,0.61800000,-0.04200000
181358,0.67850000,-0.04600000
181359,0.72550000,-0.04750000
181360,0.73250000,-0.04350000
181361,0.72550000,-0.03050000
181362,0.71250000,-0.02100000
181363,0.67200000,-0.02350000
181364,0.61150000,-0.03400000
181365,0.57100000,-0.03700000
181366,0.50400000,-0.03850000
181367,0.43700000,-0.04050000
181368,0.37650000,-0.04200000
181369,0.30900000,-0.05100000
181370,0.24850000,-0.05400000
181371,0.19500000,-0.05100000
181372,0.12750000,-0.04000000
181373,0.07400000,-0.01700000
181374,0.01350000,0.03750000
181375,-0.03350000,0.16700000
181376,-0.08050000,0.41150000
181377,-0.12100000,0.60450000
181378,-0.15450000,0.51600000
181379,-0.17450000,0.25600000
181380,-0.19800000,0.04900000
181381,-0.19800000,-0.05950000
181382,-0.18400000,-0.09300000
181383,-0.16950000,-0.10100000
181384,-0.14150000,-0.11100000
181385,-0.12000000,-0.11700000
181386,-0.08450000,-0.11500000
181387,-0.06350000,-0.10800000
181388,-0.03500000,-0.10100000
181389,-0.03500000,-0.09700000
181390,-0.02100000,-0.08950000
181391,-0.02100000,-0.08100000
181392,-0.03500000,-0.07200000
181393,-0.04950000,-0.06650000
181394,-0.07750000,-0.07050000
181395,-0.12000000,-0.07100000
181396,-0.14850000,-0.05450000
181397,-0.18400000,-0.02300000
181398,-0.20500000,0.00600000
181399,-0.21900000,0.03250000
181400,-0.23350000,0.06300000
181401,-0.21900000,0.09250000
181402,-0.20500000,0.11250000
181403,-0.18400000,0.11850000
181404,-0.14150000,0.10750000
181405,-0.08450000,0.08600000
181406,-0.01400000,0.06350000
181407,0.07100000,0.04350000
181408,0.16300000,0.02550000
181409,0.27650000,0.01100000
181410,0.39650000,-0.00500000
181411,0.51700000,-0.02250000
181412,0.61600000,-0.03650000
181413,0.70800000,-0.04950000
181414,0.78600000,-0.05650000
181415,0.82150000,-0.05700000
181416,0.84950000,-0.05000000
181417,0.83550000,-0.04200000
181418,0.80700000,-0.03050000
181419,0.75750000,-0.02150000
181420,0.70800000,-0.02700000
181421,0.63750000,-0.03750000
181422,0.57350000,-0.04350000
181423,0.51000000,-0.04100000
181424,0.42500000,-0.04200000
181425,0.35400000,-0.05300000
181426,0.28350000,-0.06000000
181427,0.21950000,-0.06250000
181428,0.14200000,-0.05400000
181429,0.07800000,-0.02550000
181430,0.02150000,0.01900000
181431,-0.04200000,0.10250000
181432,-0.09900000,0.29300000
181433,-0.14850000,0.53750000
181434,-0.17650000,0.56750000
181435,-0.21200000,0.34600000
181436,-0.22650000,0.12100000
181437,-0.24050000,-0.01100000
181438,-0.24750000,-0.08100000
181439,-0.23350000,-0.10950000
181440,-0.21900000,-0.11750000
181441,-0.20500000,-0.12100000
181442,-0.19100000,-0.12350000
181443,-0.16250000,-0.11950000
181444,-0.21050000,-0.11000000
181445,-0.19650000,-0.10050000
181446,-0.19650000,-0.09550000
181447,-0.19650000,-0.08750000
181448,-0.18950000,-0.07550000
181449,-0.20350000,-0.07350000
181450,-0.22450000,-0.07950000
181451,-0.24550000,-0.07800000
181452,-0.27350000,-0.06250000
181453,-0.30150000,-0.03750000
181454,-0.32950000,-0.01100000
181455,-0.36500000,0.01800000
181456,-0.39300000,0.05200000
181457,-0.41400000,0.08600000
181458,-0.43500000,0.10600000
181459,-0.43500000,0.11450000
181460,-0.42800000,0.11400000
181461,-0.40000000,0.10200000
181462,-0.35800000,0.08000000
181463,-0.28750000,0.05100000
181464,-0.19650000,0.02600000
181465,-0.09100000,0.01100000
181466,0.02100000,-0.00350000
181467,0.13350000,-0.01900000
181468,0.24550000,-0.03600000
181469,0.34400000,-0.05250000
181470,0.42800000,-0.05900000
181471,0.49800000,-0.06200000
181472,0.53300000,-0.06100000
181473,0.54700000,-0.05250000
181474,0.53300000,-0.03900000
181475,0.49800000,-0.02850000
181476,0.46300000,-0.02750000
181477,0.40700000,-0.03500000
181478,0.34400000,-0.04200000
181479,0.28050000,-0.04750000
181480,0.21050000,-0.04550000
181481,0.13350000,-0.04150000
181482,0.07000000,-0.05000000
181483,-0.00700000,-0.06000000
181484,-0.07700000,-0.06000000
181485,-0.14050000,-0.04050000
181486,-0.21050000,-0.00650000
181487,-0.27350000,0.05950000
181488,-0.32950000,0.20750000
181489,-0.37200000,0.45100000
181490,-0.42100000,0.57550000
181491,-0.44900000,0.42400000
181492,-0.47700000,0.17350000
181493,-0.49100000,0.00450000
181494,-0.49100000,-0.07200000
181495,-0.48400000,-0.09650000
181496,-0.46300000,-0.09900000
181497,-0.44900000,-0.10250000
181498,-0.42100000,-0.10550000
181499,-0.39300000,-0.10550000
181500,-0.35800000,-0.10050000
181501,-0.34400000,-0.09000000
181502,-0.31550000,-0.07900000
181503,-0.30150000,-0.07150000
181504,-0.29450000,-0.06950000
181505,-0.29450000,-0.07100000
181506,-0.30150000,-0.06400000
181507,-0.31550000,-0.05000000
181508,-0.35250000,-0.03350000
181509,-0.37150000,-0.02000000
181510,-0.39750000,0.00250000
181511,-0.42300000,0.02900000
181512,-0.44850000,0.05950000
181513,-0.46150000,0.09400000
181514,-0.47400000,0.12250000
181515,-0.48050000,0.13850000
181516,-0.47400000,0.13450000
181517,-0.45500000,0.11500000
181518,-0.41000000,0.09000000
181519,-0.35250000,0.06750000
181520,-0.28200000,0.04850000
181521,-0.18600000,0.02900000
181522,-0.08350000,0.01350000
181523,0.03200000,-0.00650000
181524,0.14100000,-0.02700000
181525,0.23700000,-0.03500000
181526,0.32650000,-0.04200000
181527,0.39700000,-0.04550000
181528,0.44200000,-0.03900000
181529,0.46100000,-0.03600000
181530,0.46100000,-0.03150000
181531,0.44200000,-0.02400000
181532,0.40350000,-0.01850000
181533,0.35850000,-0.02050000
181534,0.30100000,-0.02750000
181535,0.25000000,-0.03150000
181536,0.18550000,-0.03000000
181537,0.11500000,-0.03550000
181538,0.05750000,-0.04650000
181539,-0.01950000,-0.05700000
181540,-0.08350000,-0.05500000
181541,-0.14100000,-0.03950000
181542,-0.20500000,0.00050000
181543,-0.26250000,0.07600000
181544,-0.31400000,0.21750000
181545,-0.35900000,0.45350000
181546,-0.39750000,0.59800000
181547,-0.42950000,0.45450000
181548,-0.45500000,0.18350000
181549,-0.46750000,0.00650000
181550,-0.46150000,-0.06850000
181551,-0.44200000,-0.09650000
181552,-0.42300000,-0.10950000
181553,-0.39750000,-0.11350000
181554,-0.36500000,-0.10850000
181555,-0.32700000,-0.10100000
181556,-0.29500000,-0.09900000
181557,-0.26250000,-0.09700000
181558,-0.24350000,-0.09000000
181559,-0.21800000,-0.08250000
181560,-0.21150000,-0.07500000
181561,-0.20500000,-0.07100000
181562,-0.21150000,-0.06400000
181563,-0.22450000,-0.05500000
181564,-0.23050000,-0.04000000
181565,-0.25650000,-0.02350000
181566,-0.27550000,0.00400000
181567,-0.29500000,0.03600000
181568,-0.31400000,0.06450000
181569,-0.32700000,0.08900000
181570,-0.33300000,0.11200000
181571,-0.30750000,0.13050000
181572,-0.29450000,0.13450000
181573,-0.24450000,0.12400000
181574,-0.16300000,0.10100000
181575,-0.06250000,0.07950000
181576,0.05000000,0.05500000
181577,0.16900000,0.02750000
181578,0.30050000,0.00700000
181579,0.42000000,-0.00900000
181580,0.52000000,-0.02600000
181581,0.61400000,-0.04000000
181582,0.67050000,-0.05300000
181583,0.70800000,-0.05850000
181584,0.72050000,-0.05650000
181585,0.71400000,-0.04450000
181586,0.68900000,-0.02850000
181587,0.63900000,-0.01550000
181588,0.59500000,-0.01450000
181589,0.53250000,-0.02350000
181590,0.47600000,-0.03650000
181591,0.42000000,-0.05100000
181592,0.36350000,-0.05750000
181593,0.30050000,-0.05100000
181594,0.24450000,-0.04750000
181595,0.18800000,-0.05250000
181596,0.13150000,-0.05650000
181597,0.08150000,-0.04850000
181598,0.02500000,-0.00350000
181599,-0.01900000,0.09500000
181600,-0.06900000,0.26250000
181601,-0.10650000,0.49800000
181602,-0.13800000,0.60700000
181603,-0.15650000,0.42450000
181604,-0.18150000,0.14100000
181605,-0.18150000,-0.02550000
181606,-0.18800000,-0.08700000
181607,-0.18150000,-0.10100000
181608,-0.16900000,-0.11000000
181609,-0.15050000,-0.12300000
181610,-0.13800000,-0.12600000
181611,-0.11900000,-0.11600000
181612,-0.10650000,-0.10600000
181613,-0.08800000,-0.09400000
181614,-0.08800000,-0.08400000
181615,-0.08150000,-0.08050000
181616,-0.09400000,-0.07500000
181617,-0.10050000,-0.06650000
181618,-0.11900000,-0.05850000
181619,-0.14400000,-0.04200000
181620,-0.15650000,-0.02050000
181621,-0.19450000,-0.00350000
181622,-0.21950000,0.01550000
181623,-0.24450000,0.04200000
181624,-0.27550000,0.07950000
181625,-0.29450000,0.11800000
181626,-0.30100000,0.14500000
181627,-0.29450000,0.15150000
181628,-0.27550000,0.14050000
181629,-0.23200000,0.12200000
181630,-0.16900000,0.09700000
181631,-0.08800000,0.07250000
181632,0.00600000,0.04050000
181633,0.10650000,0.01350000
181634,0.21950000,-0.00500000
181635,0.33200000,-0.02400000
181636,0.38250000,-0.04150000
181637,0.46700000,-0.05350000
181638,0.51900000,-0.05900000
181639,0.55800000,-0.06150000
181640,0.57100000,-0.05700000
181641,0.56450000,-0.04650000
181642,0.53200000,-0.04000000
181643,0.49300000,-0.03450000
181644,0.44100000,-0.02650000
181645,0.38250000,-0.02750000
181646,0.31800000,-0.03500000
181647,0.25300000,-0.04000000
181648,0.18150000,-0.04050000
181649,0.11700000,-0.04700000
181650,0.03900000,-0.05750000
181651,-0.01950000,-0.06200000
181652,-0.08400000,-0.06200000
181653,-0.14900000,-0.04900000
181654,-0.20750000,-0.00450000
181655,-0.26550000,0.08400000
181656,-0.31750000,0.23850000
181657,-0.36300000,0.46900000
181658,-0.39550000,0.60950000
181659,-0.42800000,0.47250000
181660,-0.46000000,0.19500000
181661,-0.47300000,0.01000000
181662,-0.47950000,-0.06700000
181663,-0.47300000,-0.10000000
181664,-0.46000000,-0.11000000
181665,-0.44100000,-0.10650000
181666,-0.42800000,-0.10400000
181667,-0.40200000,-0.10250000
181668,-0.38900000,-0.10250000
181669,-0.37600000,-0.10100000
181670,-0.36300000,-0.09700000
181671,-0.36950000,-0.08800000
181672,-0.37600000,-0.07700000
181673,-0.38900000,-0.06800000
181674,-0.40850000,-0.05900000
181675,-0.42800000,-0.04750000
181676,-0.46000000,-0.03800000
181677,-0.49250000,-0.02450000
181678,-0.52500000,0.00000000
181679,-0.55100000,0.03050000
181680,-0.59000000,0.06650000
181681,-0.60950000,0.09800000
181682,-0.63550000,0.12150000
181683,-0.64200000,0.13400000
181684,-0.64200000,0.12950000
181685,-0.62900000,0.11500000
181686,-0.59000000,0.09750000
181687,-0.53800000,0.07350000
181688,-0.46000000,0.04700000
181689,-0.37600000,0.02950000
181690,-0.26550000,0.01400000
181691,-0.16850000,0.00000000
181692,-0.05800000,-0.01600000
181693,0.03900000,-0.03350000
181694,0.12350000,-0.04500000
181695,0.18800000,-0.05100000
181696,0.22700000,-0.04950000
181697,0.24650000,-0.03900000
181698,0.24650000,-0.02750000
181699,0.22700000,-0.02000000
181700,0.20050000,-0.01300000
181701,0.14900000,-0.01300000
181702,0.09700000,-0.01700000
181703,0.03900000,-0.02700000
181704,-0.02550000,-0.03450000
181705,-0.09700000,-0.03700000
181706,-0.16800000,-0.03750000
181707,-0.23250000,-0.04500000
181708,-0.29750000,-0.05250000
181709,-0.36200000,-0.05200000
181710,-0.42050000,-0.03300000
181711,-0.48500000,0.00750000
181712,-0.53700000,0.08550000
181713,-0.58850000,0.24000000
181714,-0.63400000,0.47750000
181715,-0.67250000,0.59650000
181716,-0.69200000,0.44650000
181717,-0.71800000,0.19650000
181718,-0.71800000,0.02500000
181719,-0.71800000,-0.05950000
181720,-0.69850000,-0.09750000
181721,-0.68550000,-0.10400000
181722,-0.66600000,-0.09450000
181723,-0.63400000,-0.09700000
181724,-0.61450000,-0.10650000
181725,-0.58850000,-0.10500000
181726,-0.56900000,-0.09400000
181727,-0.55600000,-0.08900000
181728,-0.54950000,-0.08050000
181729,-0.53700000,-0.06850000
181730,-0.54950000,-0.06400000
181731,-0.55600000,-0.05500000
181732,-0.57550000,-0.04550000
181733,-0.59500000,-0.04150000
181734,-0.61450000,-0.02550000
181735,-0.64650000,0.00200000
181736,-0.66600000,0.02700000
181737,-0.68550000,0.05050000
181738,-0.71150000,0.07950000
181739,-0.73100000,0.10700000
181740,-0.73750000,0.12150000
181741,-0.72450000,0.12500000
181742,-0.70500000,0.11650000
181743,-0.66600000,0.09850000
181744,-0.60150000,0.07650000
181745,-0.53050000,0.05300000
181746,-0.43950000,0.03250000
181747,-0.33000000,0.01650000
181748,-0.22000000,0.00450000
181749,-0.11000000,-0.01050000
181750,0.00000000,-0.02850000
181751,0.08400000,-0.04300000
181752,0.15550000,-0.04650000
181753,0.20050000,-0.03650000
181754,0.22650000,-0.02950000
181755,0.23300000,-0.02400000
181756,0.22000000,-0.01700000
181757,0.18750000,-0.01650000
181758,0.14900000,-0.02350000
181759,0.09050000,-0.02450000
181760,0.03250000,-0.02250000
181761,-0.03200000,-0.02700000
181762,-0.09050000,-0.03000000
181763,-0.16800000,-0.03050000
181764,-0.19050000,-0.03950000
181765,-0.25450000,-0.05400000
181766,-0.31800000,-0.05450000
181767,-0.37500000,-0.02650000
181768,-0.43250000,0.03400000
181769,-0.48950000,0.14600000
181770,-0.53400000,0.35800000
181771,-0.57250000,0.57850000
181772,-0.60400000,0.55800000
181773,-0.63600000,0.31450000
181774,-0.64850000,0.09050000
181775,-0.64250000,-0.03050000
181776,-0.63600000,-0.08000000
181777,-0.62300000,-0.10000000
181778,-0.59750000,-0.10200000
181779,-0.57250000,-0.09600000
181780,-0.54700000,-0.09400000
181781,-0.51500000,-0.09850000
181782,-0.48350000,-0.09850000
181783,-0.47050000,-0.09350000
181784,-0.45150000,-0.08450000
181785,-0.43900000,-0.07500000
181786,-0.43250000,-0.06800000
181787,-0.43250000,-0.06400000
181788,-0.43900000,-0.06000000
181789,-0.45800000,-0.04900000
181790,-0.48350000,-0.03400000
181791,-0.49600000,-0.01450000
181792,-0.52800000,0.01000000
181793,-0.54050000,0.03650000
181794,-0.57250000,0.06500000
181795,-0.57850000,0.09550000
181796,-0.59150000,0.11400000
181797,-0.59750000,0.12050000
181798,-0.57850000,0.12300000
181799,-0.54700000,0.10950000
181800,-0.50250000,0.08000000
181801,-0.43250000,0.05450000
181802,-0.34950000,0.03650000
181803,-0.26050000,0.02150000
181804,-0.15250000,0.00850000
181805,-0.04450000,-0.00550000
181806,0.06350000,-0.02550000
181807,0.15250000,-0.03750000
181808,0.23550000,-0.04050000
181809,0.29900000,-0.04000000
181810,0.33700000,-0.03900000
181811,0.35000000,-0.03000000
181812,0.35000000,-0.01700000
181813,0.31800000,-0.01150000
181814,0.28600000,-0.01500000
181815,0.22900000,-0.02150000
181816,0.17150000,-0.03150000
181817,0.10800000,-0.03500000
181818,0.04450000,-0.03650000
181819,-0.01250000,-0.04350000
181820,-0.08900000,-0.05300000
181821,-0.15250000,-0.05450000
181822,-0.21600000,-0.04900000
181823,-0.26700000,-0.02900000
181824,-0.33050000,0.01500000
181825,-0.39400000,0.10150000
181826,-0.44500000,0.28700000
181827,-0.48950000,0.53600000
181828,-0.49000000,0.59600000
181829,-0.52150000,0.38650000
181830,-0.53450000,0.13900000
181831,-0.55350000,-0.00700000
181832,-0.54700000,-0.07050000
181833,-0.54700000,-0.09650000
181834,-0.52800000,-0.10650000
181835,-0.51500000,-0.10950000
181836,-0.48350000,-0.11000000
181837,-0.46450000,-0.10800000
181838,-0.43900000,-0.10100000
181839,-0.41350000,-0.09350000
181840,-0.39450000,-0.08450000
181841,-0.37550000,-0.07550000
181842,-0.36250000,-0.07100000
181843,-0.36900000,-0.06750000
181844,-0.36900000,-0.06450000
181845,-0.38150000,-0.06000000
181846,-0.39450000,-0.04600000
181847,-0.40700000,-0.02400000
181848,-0.43250000,0.00000000
181849,-0.45800000,0.02650000
181850,-0.47700000,0.05400000
181851,-0.49600000,0.08500000
181852,-0.51500000,0.11200000
181853,-0.52800000,0.12350000
181854,-0.52800000,0.12000000
181855,-0.50900000,0.10800000
181856,-0.47700000,0.09300000
181857,-0.42600000,0.06750000
181858,-0.35600000,0.03750000
181859,-0.28000000,0.01800000
181860,-0.18450000,0.00500000
181861,-0.07000000,-0.01050000
181862,0.03150000,-0.02200000
181863,0.13350000,-0.03150000
181864,0.22250000,-0.04350000
181865,0.29250000,-0.05150000
181866,0.34350000,-0.04950000
181867,0.36850000,-0.04850000
181868,0.37500000,-0.03550000
181869,0.36850000,-0.01900000
181870,0.33700000,-0.01450000
181871,0.29900000,-0.01850000
181872,0.24150000,-0.02350000
181873,0.18450000,-0.03150000
181874,0.13350000,-0.03700000
181875,0.05700000,-0.04050000
181876,-0.00650000,-0.04700000
181877,-0.07650000,-0.05700000
181878,-0.13350000,-0.05650000
181879,-0.20350000,-0.04050000
181880,-0.26700000,0.00000000
181881,-0.32450000,0.07550000
181882,-0.38150000,0.23650000
181883,-0.43250000,0.48350000
181884,-0.47050000,0.59400000
181885,-0.50900000,0.42600000
181886,-0.53450000,0.17050000
181887,-0.54700000,0.00950000
181888,-0.54700000,-0.05950000
181889,-0.54050000,-0.08900000
181890,-0.52800000,-0.10600000
181891,-0.50900000,-0.11500000
181892,-0.40750000,-0.11700000
181893,-0.37550000,-0.11150000
181894,-0.34950000,-0.10100000
181895,-0.31700000,-0.09400000
181896,-0.29100000,-0.08950000
181897,-0.27200000,-0.08300000
181898,-0.26550000,-0.07850000
181899,-0.24600000,-0.07500000
181900,-0.25250000,-0.06800000
181901,-0.26550000,-0.06350000
181902,-0.27200000,-0.04950000
181903,-0.29100000,-0.02650000
181904,-0.31700000,-0.00200000
181905,-0.33650000,0.02150000
181906,-0.36250000,0.05050000
181907,-0.38150000,0.07950000
181908,-0.39450000,0.10200000
181909,-0.40750000,0.11400000
181910,-0.40100000,0.12100000
181911,-0.38800000,0.11650000
181912,-0.34950000,0.09550000
181913,-0.29750000,0.06950000
181914,-0.22000000,0.04500000
181915,-0.13600000,0.02550000
181916,-0.02600000,0.01250000
181917,0.07750000,-0.00150000
181918,0.20050000,-0.01650000
181919,0.29750000,-0.02200000
181920,0.38150000,-0.02550000
181921,0.45900000,-0.02900000
181922,0.51100000,-0.02800000
181923,0.54350000,-0.02500000
181924,0.55000000,-0.02050000
181925,0.54350000,-0.01100000
181926,0.50450000,-0.00400000
181927,0.46550000,-0.00600000
181928,0.41400000,-0.01600000
181929,0.35550000,-0.02200000
181930,0.29100000,-0.02200000
181931,0.23300000,-0.02950000
181932,0.16150000,-0.04150000
181933,0.09700000,-0.04300000
181934,0.02600000,-0.03750000
181935,-0.03900000,-0.02400000
181936,-0.10350000,0.01250000
181937,-0.15550000,0.08400000
181938,-0.21350000,0.24050000
181939,-0.25900000,0.50100000
181940,-0.31050000,0.63750000
181941,-0.34950000,0.48050000
181942,-0.36900000,0.21300000
181943,-0.38800000,0.02900000
181944,-0.38150000,-0.05900000
181945,-0.38150000,-0.08750000
181946,-0.36900000,-0.09400000
181947,-0.34950000,-0.09550000
181948,-0.31700000,-0.09700000
181949,-0.29100000,-0.10000000
181950,-0.26550000,-0.09200000
181951,-0.22650000,-0.07900000
181952,-0.20050000,-0.07300000
181953,-0.18100000,-0.06950000
181954,-0.17450000,-0.06800000
181955,-0.16850000,-0.06450000
181956,-0.14600000,-0.06250000
181957,-0.15300000,-0.06100000
181958,-0.16000000,-0.04900000
181959,-0.18100000,-0.02250000
181960,-0.20850000,0.00450000
181961,-0.23650000,0.02650000
181962,-0.25050000,0.05050000
181963,-0.27100000,0.07950000
181964,-0.28500000,0.10500000
181965,-0.28500000,0.11800000
181966,-0.28500000,0.11900000
181967,-0.25050000,0.11250000
181968,-0.20850000,0.09600000
181969,-0.13200000,0.07050000
181970,-0.04150000,0.04500000
181971,0.06250000,0.02250000
181972,0.18100000,0.00450000
181973,0.30600000,-0.00850000
181974,0.41050000,-0.02350000
181975,0.52850000,-0.03450000
181976,0.61200000,-0.03700000
181977,0.68850000,-0.04050000
181978,0.72300000,-0.04500000
181979,0.74400000,-0.04000000
181980,0.75100000,-0.02600000
181981,0.72300000,-0.01800000
181982,0.68850000,-0.02050000
181983,0.63950000,-0.02750000
181984,0.57700000,-0.03600000
181985,0.51450000,-0.04250000
181986,0.44500000,-0.04250000
181987,0.37550000,-0.04350000
181988,0.29900000,-0.04900000
181989,0.22250000,-0.04800000
181990,0.16000000,-0.03850000
181991,0.09050000,-0.02500000
181992,0.01400000,0.01450000
181993,-0.04850000,0.09150000
181994,-0.10450000,0.25150000
181995,-0.15300000,0.50850000
181996,-0.20150000,0.62650000
181997,-0.24350000,0.45750000
181998,-0.27100000,0.20650000
181999,-0.28500000,0.04150000
182000,-0.29200000,-0.03800000
182001,-0.29200000,-0.06400000
182002,-0.27100000,-0.06750000
182003,-0.24350000,-0.07350000
182004,-0.22250000,-0.08200000
182005,-0.18750000,-0.08550000
182006,-0.16700000,-0.08250000
182007,-0.14600000,-0.07500000
182008,-0.12500000,-0.07150000
182009,-0.10450000,-0.07100000
182010,-0.09750000,-0.06850000
182011,-0.09750000,-0.06450000
182012,-0.11100000,-0.06200000
182013,-0.11800000,-0.05750000
182014,-0.13900000,-0.04950000
182015,-0.15300000,-0.03500000
182016,-0.18750000,-0.01300000
182017,-0.20850000,0.01200000
182018,-0.22950000,0.04100000
182019,-0.24350000,0.07550000
182020,-0.32000000,0.09700000
182021,-0.32000000,0.10250000
182022,-0.30550000,0.10350000
182023,-0.28450000,0.10300000
182024,-0.23450000,0.08600000
182025,-0.15650000,0.06200000
182026,-0.07100000,0.03700000
182027,0.03550000,0.01750000
182028,0.16350000,0.00350000
182029,0.27750000,-0.01550000
182030,0.40550000,-0.03300000
182031,0.51200000,-0.04500000
182032,0.60450000,-0.05150000
182033,0.66850000,-0.05400000
182034,0.70400000,-0.05100000
182035,0.72500000,-0.04200000
182036,0.71800000,-0.03050000
182037,0.68950000,-0.02100000
182038,0.64000000,-0.02300000
182039,0.58300000,-0.03100000
182040,0.51200000,-0.03500000
182041,0.44800000,-0.04050000
182042,0.37700000,-0.04900000
182043,0.29850000,-0.05350000
182044,0.22750000,-0.05700000
182045,0.14950000,-0.06200000
182046,0.07850000,-0.05900000
182047,0.00700000,-0.03800000
182048,-0.06400000,0.00750000
182049,-0.14200000,0.09350000
182050,-0.19900000,0.27200000
182051,-0.25600000,0.52400000
182052,-0.30550000,0.60950000
182053,-0.34850000,0.41700000
182054,-0.36950000,0.17050000
182055,-0.39100000,0.01600000
182056,-0.40500000,-0.06250000
182057,-0.40500000,-0.09450000
182058,-0.39800000,-0.10300000
182059,-0.38400000,-0.10600000
182060,-0.35550000,-0.10950000
182061,-0.34100000,-0.11150000
182062,-0.31250000,-0.10750000
182063,-0.28450000,-0.10100000
182064,-0.27000000,-0.09400000
182065,-0.25600000,-0.08950000
182066,-0.24900000,-0.08250000
182067,-0.24900000,-0.07500000
182068,-0.25600000,-0.06800000
182069,-0.27000000,-0.06400000
182070,-0.28450000,-0.06000000
182071,-0.30550000,-0.04400000
182072,-0.33400000,-0.01350000
182073,-0.36950000,0.01600000
182074,-0.39100000,0.04100000
182075,-0.41250000,0.06700000
182076,-0.44050000,0.09000000
182077,-0.45500000,0.09900000
182078,-0.45500000,0.09850000
182079,-0.43350000,0.08900000
182080,-0.39800000,0.07300000
182081,-0.33400000,0.05250000
182082,-0.25600000,0.02650000
182083,-0.16350000,0.00150000
182084,-0.12600000,-0.01800000
182085,-0.01400000,-0.03100000
182086,0.10500000,-0.04400000
182087,0.21000000,-0.05600000
182088,0.30800000,-0.05900000
182089,0.37100000,-0.05500000
182090,0.41300000,-0.04450000
182091,0.44800000,-0.03300000
182092,0.44100000,-0.02200000
182093,0.42700000,-0.01450000
182094,0.39200000,-0.01800000
182095,0.34300000,-0.02300000
182096,0.28700000,-0.02800000
182097,0.22400000,-0.03500000
182098,0.14700000,-0.04000000
182099,0.07700000,-0.04250000
182100,0.00000000,-0.05300000
182101,-0.07700000,-0.06350000
182102,-0.15400000,-0.06100000
182103,-0.22400000,-0.03100000
182104,-0.30100000,0.02350000
182105,-0.37100000,0.12200000
182106,-0.42700000,0.32200000
182107,-0.48300000,0.53550000
182108,-0.53200000,0.52150000
182109,-0.56700000,0.29750000
182110,-0.59500000,0.08800000
182111,-0.61600000,-0.03100000
182112,-0.63000000,-0.08300000
182113,-0.62300000,-0.10050000
182114,-0.61600000,-0.10600000
182115,-0.59500000,-0.10750000
182116,-0.57400000,-0.10250000
182117,-0.53900000,-0.09300000
182118,-0.50400000,-0.08250000
182119,-0.47600000,-0.07150000
182120,-0.44800000,-0.05850000
182121,-0.42000000,-0.04600000
182122,-0.39200000,-0.03850000
182123,-0.39200000,-0.02850000
182124,-0.37800000,-0.01200000
182125,-0.37800000,0.00300000
182126,-0.39200000,0.01750000
182127,-0.40600000,0.03400000
182128,-0.42000000,0.05150000
182129,-0.44800000,0.07400000
182130,-0.47600000,0.10850000
182131,-0.49000000,0.13450000
182132,-0.51100000,0.14700000
182133,-0.51100000,0.14550000
182134,-0.51100000,0.13150000
182135,-0.49700000,0.11450000
182136,-0.45500000,0.09250000
182137,-0.39200000,0.06600000
182138,-0.30800000,0.03700000
182139,-0.21700000,0.01200000
182140,-0.11200000,-0.01350000
182141,-0.00700000,-0.03600000
182142,0.10500000,-0.04950000
182143,0.21700000,-0.05850000
182144,0.30100000,-0.06600000
182145,0.37100000,-0.06550000
182146,0.42000000,-0.06250000
182147,0.44800000,-0.06250000
182148,0.39450000,-0.06250000
182149,0.38100000,-0.05950000
182150,0.34750000,-0.06050000
182151,0.30100000,-0.06600000
182152,0.25400000,-0.06850000
182153,0.18700000,-0.06650000
182154,0.12700000,-0.06250000
182155,0.04700000,-0.06250000
182156,-0.02000000,-0.06300000
182157,-0.09350000,-0.06250000
182158,-0.16050000,-0.05400000
182159,-0.22050000,-0.01950000
182160,-0.28750000,0.05450000
182161,-0.35450000,0.19350000
182162,-0.40150000,0.42750000
182163,-0.44800000,0.60000000
182164,-0.50150000,0.48050000
182165,-0.52150000,0.21250000
182166,-0.54850000,0.02850000
182167,-0.55500000,-0.05350000
182168,-0.55500000,-0.08250000
182169,-0.54850000,-0.09350000
182170,-0.52850000,-0.10750000
182171,-0.50850000,-0.11650000
182172,-0.47500000,-0.11500000
182173,-0.44150000,-0.10750000
182174,-0.40150000,-0.09500000
182175,-0.37450000,-0.07750000
182176,-0.34100000,-0.06500000
182177,-0.32750000,-0.06250000
182178,-0.30750000,-0.06300000
182179,-0.29450000,-0.06250000
182180,-0.30100000,-0.05550000
182181,-0.30750000,-0.03800000
182182,-0.31450000,-0.01250000
182183,-0.32750000,0.01250000
182184,-0.34800000,0.03650000
182185,-0.36100000,0.07550000
182186,-0.37450000,0.11950000
182187,-0.38800000,0.15500000
182188,-0.38100000,0.16950000
182189,-0.35450000,0.16950000
182190,-0.30100000,0.15850000
182191,-0.24100000,0.14200000
182192,-0.14050000,0.12150000
182193,-0.03350000,0.09650000
182194,0.09350000,0.06100000
182195,0.22750000,0.03150000
182196,0.34750000,0.01400000
182197,0.46800000,-0.00200000
182198,0.56850000,-0.02100000
182199,0.64850000,-0.03100000
182200,0.69550000,-0.03350000
182201,0.72900000,-0.03150000
182202,0.73550000,-0.03050000
182203,0.70900000,-0.02500000
182204,0.67550000,-0.02200000
182205,0.62200000,-0.02400000
182206,0.56850000,-0.03150000
182207,0.50150000,-0.04000000
182208,0.44150000,-0.04950000
182209,0.36800000,-0.05700000
182210,0.30750000,-0.06400000
182211,0.24750000,-0.06950000
182212,0.18850000,-0.06950000
182213,0.13500000,-0.06600000
182214,0.08100000,-0.04800000
182215,0.02700000,0.01150000
182216,-0.03350000,0.13000000
182217,-0.08050000,0.33350000
182218,-0.11450000,0.54000000
182219,-0.15450000,0.51250000
182220,-0.18150000,0.25550000
182221,-0.20200000,0.02650000
182222,-0.20200000,-0.08300000
182223,-0.20850000,-0.12000000
182224,-0.20200000,-0.12800000
182225,-0.17500000,-0.12950000
182226,-0.14800000,-0.13150000
182227,-0.11450000,-0.13200000
182228,-0.09400000,-0.12800000
182229,-0.06700000,-0.11550000
182230,-0.04050000,-0.09900000
182231,-0.02700000,-0.08750000
182232,-0.01350000,-0.08050000
182233,-0.02000000,-0.07200000
182234,-0.02700000,-0.06400000
182235,-0.03350000,-0.05100000
182236,-0.05350000,-0.03000000
182237,-0.08050000,-0.00950000
182238,-0.10750000,0.01050000
182239,-0.14150000,0.03950000
182240,-0.16800000,0.07400000
182241,-0.18150000,0.10150000
182242,-0.20200000,0.12700000
182243,-0.20200000,0.14850000
182244,-0.18150000,0.15100000
182245,-0.14800000,0.13650000
182246,-0.08050000,0.11100000
182247,-0.00650000,0.07900000
182248,0.09450000,0.05100000
182249,0.21550000,0.02700000
182250,0.33700000,0.00500000
182251,0.46500000,-0.01550000
182252,0.57950000,-0.03100000
182253,0.66700000,-0.03650000
182254,0.74750000,-0.03850000
182255,0.79500000,-0.04000000
182256,0.81500000,-0.03650000
182257,0.81500000,-0.03150000
182258,0.78800000,-0.02150000
182259,0.75450000,-0.00450000
182260,0.70050000,0.00250000
182261,0.62650000,-0.00150000
182262,0.56600000,-0.00550000
182263,0.49850000,-0.00750000
182264,0.42450000,-0.00800000
182265,0.36400000,-0.00750000
182266,0.28950000,-0.00750000
182267,0.22900000,-0.01300000
182268,0.16200000,-0.01900000
182269,0.08750000,-0.01150000
182270,0.02700000,0.04550000
182271,-0.03350000,0.16500000
182272,-0.08750000,0.35450000
182273,-0.13450000,0.57650000
182274,-0.18150000,0.62050000
182275,-0.21550000,0.39550000
182276,-0.24250000,0.12550000
182277,-0.25600000,-0.02400000
182278,-0.26900000,-0.08650000
182279,-0.26250000,-0.11350000
182280,-0.26250000,-0.11950000
182281,-0.24250000,-0.11900000
182282,-0.22900000,-0.12450000
182283,-0.21550000,-0.12300000
182284,-0.19500000,-0.11750000
182285,-0.18850000,-0.11700000
182286,-0.17500000,-0.11300000
182287,-0.17500000,-0.10250000
182288,-0.17500000,-0.09150000
182289,-0.18150000,-0.08150000
182290,-0.19500000,-0.07200000
182291,-0.21550000,-0.06600000
182292,-0.24250000,-0.06050000
182293,-0.26900000,-0.04200000
182294,-0.29600000,-0.01050000
182295,-0.33000000,0.01750000
182296,-0.36350000,0.04300000
182297,-0.38350000,0.06900000
182298,-0.40400000,0.09300000
182299,-0.41050000,0.10050000
182300,-0.40400000,0.08900000
182301,-0.38350000,0.06800000
182302,-0.33650000,0.04850000
182303,-0.26900000,0.02750000
182304,-0.18850000,0.00900000
182305,-0.08050000,-0.00850000
182306,0.02700000,-0.03500000
182307,0.14150000,-0.05750000
182308,0.24950000,-0.06750000
182309,0.34350000,-0.07500000
182310,0.42450000,-0.08200000
182311,0.47850000,-0.08200000
182312,0.51200000,-0.07000000
182313,0.52550000,-0.05300000
182314,0.51200000,-0.03100000
182315,0.47150000,-0.01400000
182316,0.42450000,-0.01300000
182317,0.36400000,-0.01950000
182318,0.30300000,-0.02200000
182319,0.23600000,-0.01650000
182320,0.16200000,-0.00600000
182321,0.08750000,0.00050000
182322,0.00700000,0.00150000
182323,-0.06050000,-0.00250000
182324,-0.12800000,-0.00800000
182325,-0.20850000,-0.00250000
182326,-0.26900000,0.03550000
182327,-0.33000000,0.12750000
182328,-0.38350000,0.28600000
182329,-0.43750000,0.51800000
182330,-0.47800000,0.63950000
182331,-0.50500000,0.48350000
182332,-0.53200000,0.22050000
182333,-0.54550000,0.04300000
182334,-0.55200000,-0.04100000
182335,-0.55200000,-0.07800000
182336,-0.53200000,-0.09350000
182337,-0.51850000,-0.10050000
182338,-0.49150000,-0.10750000
182339,-0.47800000,-0.11000000
182340,-0.45100000,-0.10300000
182341,-0.43750000,-0.09350000
182342,-0.42400000,-0.08800000
182343,-0.41050000,-0.08300000
182344,-0.41050000,-0.07850000
182345,-0.41050000,-0.07450000
182346,-0.42400000,-0.06300000
182347,-0.43750000,-0.05300000
182348,-0.47150000,-0.04700000
182349,-0.49150000,-0.03300000
182350,-0.52500000,-0.00800000
182351,-0.54550000,0.01950000
182352,-0.57900000,0.04650000
182353,-0.59900000,0.07400000
182354,-0.61950000,0.09550000
182355,-0.63300000,0.11550000
182356,-0.63300000,0.12600000
182357,-0.60600000,0.11500000
182358,-0.57250000,0.09000000
182359,-0.51150000,0.06700000
182360,-0.43100000,0.04700000
182361,-0.33650000,0.02750000
182362,-0.22900000,0.01000000
182363,-0.12100000,-0.00500000
182364,0.00000000,-0.02150000
182365,0.10100000,-0.02850000
182366,0.19550000,-0.03700000
182367,0.26300000,-0.04650000
182368,0.30300000,-0.03700000
182369,0.33000000,-0.01750000
182370,0.32350000,0.00050000
182371,0.31650000,0.01250000
182372,0.27650000,0.01750000
182373,0.21550000,0.01300000
182374,0.16850000,0.00850000
182375,0.10800000,0.00450000
182376,0.03400000,-0.00200000
182377,-0.03350000,-0.00750000
182378,-0.10100000,-0.01250000
182379,-0.18150000,-0.01700000
182380,-0.23550000,-0.02150000
182381,-0.30950000,-0.01350000
182382,-0.37000000,0.01800000
182383,-0.43100000,0.08500000
182384,-0.48450000,0.22050000
182385,-0.53200000,0.44800000
182386,-0.57900000,0.60650000
182387,-0.61250000,0.49950000
182388,-0.63300000,0.24550000
182389,-0.65300000,0.04600000
182390,-0.66000000,-0.05850000
182391,-0.65300000,-0.09500000
182392,-0.63300000,-0.10500000
182393,-0.61950000,-0.11450000
182394,-0.58550000,-0.12100000
182395,-0.55900000,-0.12050000
182396,-0.52500000,-0.11200000
182397,-0.49800000,-0.10600000
182398,-0.47150000,-0.10050000
182399,-0.45800000,-0.09550000
182400,-0.43750000,-0.09500000
182401,-0.43750000,-0.09350000
182402,-0.43750000,-0.08400000
182403,-0.45100000,-0.07200000
182404,-0.43250000,-0.06350000
182405,-0.45000000,-0.04950000
182406,-0.47350000,-0.02750000
182407,-0.49700000,-0.00150000
182408,-0.51450000,0.02300000
182409,-0.53750000,0.04700000
182410,-0.55550000,0.07600000
182411,-0.56700000,0.09550000
182412,-0.56700000,0.10200000
182413,-0.56100000,0.10100000
182414,-0.54350000,0.08900000
182415,-0.50250000,0.06350000
182416,-0.45000000,0.04050000
182417,-0.37400000,0.02250000
182418,-0.29800000,0.01000000
182419,-0.20450000,-0.00500000
182420,-0.11100000,-0.02450000
182421,-0.01750000,-0.04500000
182422,0.06400000,-0.05500000
182423,0.14000000,-0.05000000
182424,0.19250000,-0.04250000
182425,0.21600000,-0.03750000
182426,0.22800000,-0.02850000
182427,0.22800000,-0.02050000
182428,0.20450000,-0.02050000
182429,0.16350000,-0.02800000
182430,0.12250000,-0.03450000
182431,0.07000000,-0.03850000
182432,0.01150000,-0.04250000
182433,-0.04700000,-0.05100000
182434,-0.10550000,-0.05450000
182435,-0.16950000,-0.05500000
182436,-0.22800000,-0.05650000
182437,-0.28050000,-0.05050000
182438,-0.34500000,-0.01650000
182439,-0.40350000,0.05250000
182440,-0.44400000,0.18750000
182441,-0.49700000,0.42800000
182442,-0.53200000,0.59600000
182443,-0.56700000,0.48050000
182444,-0.59600000,0.22250000
182445,-0.60800000,0.03050000
182446,-0.61950000,-0.06800000
182447,-0.62550000,-0.11050000
182448,-0.61350000,-0.12600000
182449,-0.60200000,-0.12800000
182450,-0.58450000,-0.12650000
182451,-0.55550000,-0.12350000
182452,-0.53200000,-0.11550000
182453,-0.50250000,-0.10950000
182454,-0.47950000,-0.10450000
182455,-0.45600000,-0.09550000
182456,-0.43250000,-0.08650000
182457,-0.42650000,-0.08350000
182458,-0.42650000,-0.07850000
182459,-0.42650000,-0.06650000
182460,-0.42650000,-0.05450000
182461,-0.44400000,-0.03800000
182462,-0.46200000,-0.01650000
182463,-0.47350000,0.01050000
182464,-0.50250000,0.04300000
182465,-0.51450000,0.07550000
182466,-0.53200000,0.09850000
182467,-0.54350000,0.11700000
182468,-0.55350000,0.12950000
182469,-0.55350000,0.12800000
182470,-0.52400000,0.11150000
182471,-0.48800000,0.08750000
182472,-0.44050000,0.06150000
182473,-0.36900000,0.03350000
182474,-0.28600000,0.01450000
182475,-0.19050000,0.00500000
182476,-0.09550000,-0.00350000
182477,0.00000000,-0.01500000
182478,0.09500000,-0.02500000
182479,0.16650000,-0.03000000
182480,0.22050000,-0.03300000
182481,0.26200000,-0.03250000
182482,0.28550000,-0.02550000
182483,0.28550000,-0.01150000
182484,0.27400000,-0.00300000
182485,0.23200000,-0.00550000
182486,0.19650000,-0.01750000
182487,0.14300000,-0.02800000
182488,0.08350000,-0.03300000
182489,0.03000000,-0.03350000
182490,-0.04150000,-0.03650000
182491,-0.09550000,-0.04300000
182492,-0.16050000,-0.04250000
182493,-0.22050000,-0.03100000
182494,-0.27400000,-0.00150000
182495,-0.33950000,0.06350000
182496,-0.38700000,0.20200000
182497,-0.43450000,0.44950000
182498,-0.47650000,0.61300000
182499,-0.50600000,0.48400000
182500,-0.53000000,0.21950000
182501,-0.55350000,0.03250000
182502,-0.55350000,-0.05750000
182503,-0.55350000,-0.09300000
182504,-0.54750000,-0.10600000
182505,-0.52400000,-0.11550000
182506,-0.50000000,-0.11900000
182507,-0.46450000,-0.11250000
182508,-0.44050000,-0.10750000
182509,-0.40500000,-0.10050000
182510,-0.37500000,-0.08900000
182511,-0.36300000,-0.07700000
182512,-0.33950000,-0.06600000
182513,-0.32750000,-0.05650000
182514,-0.32750000,-0.05400000
182515,-0.32750000,-0.04800000
182516,-0.33350000,-0.03850000
182517,-0.35100000,-0.02200000
182518,-0.36300000,0.00600000
182519,-0.38100000,0.03300000
182520,-0.41100000,0.06500000
182521,-0.42250000,0.09600000
182522,-0.43450000,0.11950000
182523,-0.44650000,0.13400000
182524,-0.44050000,0.14150000
182525,-0.43450000,0.13450000
182526,-0.40500000,0.11350000
182527,-0.35700000,0.09100000
182528,-0.29750000,0.06950000
182529,-0.22050000,0.04350000
182530,-0.12500000,0.02050000
182531,-0.03000000,0.00150000
182532,0.13900000,-0.01400000
182533,0.24050000,-0.02550000
182534,0.32900000,-0.03450000
182535,0.40500000,-0.03650000
182536,0.44950000,-0.03400000
182537,0.48100000,-0.03750000
182538,0.48750000,-0.03850000
182539,0.48100000,-0.03300000
182540,0.44950000,-0.03500000
182541,0.41150000,-0.04000000
182542,0.36050000,-0.04650000
182543,0.30400000,-0.05300000
182544,0.24050000,-0.05150000
182545,0.18350000,-0.05500000
182546,0.11400000,-0.06600000
182547,0.05050000,-0.07300000
182548,-0.01250000,-0.07400000
182549,-0.07600000,-0.06300000
182550,-0.14550000,-0.02700000
182551,-0.19600000,0.04900000
182552,-0.25950000,0.21300000
182553,-0.31000000,0.47100000
182554,-0.35450000,0.58300000
182555,-0.39850000,0.41150000
182556,-0.43050000,0.15800000
182557,-0.44950000,-0.00250000
182558,-0.46200000,-0.07750000
182559,-0.46850000,-0.10950000
182560,-0.46200000,-0.11550000
182561,-0.44300000,-0.11200000
182562,-0.41150000,-0.11450000
182563,-0.39850000,-0.11700000
182564,-0.36700000,-0.10950000
182565,-0.33550000,-0.09750000
182566,-0.31000000,-0.09300000
182567,-0.29750000,-0.08600000
182568,-0.27850000,-0.07500000
182569,-0.27200000,-0.06800000
182570,-0.26600000,-0.06200000
182571,-0.27200000,-0.05150000
182572,-0.27850000,-0.03900000
182573,-0.30350000,-0.02550000
182574,-0.31650000,-0.00400000
182575,-0.34150000,0.02350000
182576,-0.36050000,0.05000000
182577,-0.38600000,0.08100000
182578,-0.40500000,0.11000000
182579,-0.41150000,0.12500000
182580,-0.41750000,0.12400000
182581,-0.41150000,0.11150000
182582,-0.38600000,0.08900000
182583,-0.34150000,0.06450000
182584,-0.28500000,0.04250000
182585,-0.21500000,0.02500000
182586,-0.12650000,0.01100000
182587,-0.02550000,-0.00500000
182588,0.07600000,-0.02450000
182589,0.17700000,-0.04300000
182590,0.27850000,-0.05000000
182591,0.34800000,-0.04550000
182592,0.41150000,-0.04250000
182593,0.44950000,-0.04350000
182594,0.46200000,-0.03350000
182595,0.46850000,-0.01750000
182596,0.58300000,-0.01650000
182597,0.54000000,-0.02750000
182598,0.49050000,-0.03300000
182599,0.43350000,-0.03150000
182600,0.36950000,-0.03450000
182601,0.30550000,-0.04350000
182602,0.22000000,-0.05150000
182603,0.14200000,-0.04900000
182604,0.07100000,-0.04150000
182605,-0.00750000,-0.02300000
182606,-0.07850000,0.02400000
182607,-0.14950000,0.12800000
182608,-0.22050000,0.34200000
182609,-0.28450000,0.57050000
182610,-0.34150000,0.56200000
182611,-0.38400000,0.32450000
182612,-0.41950000,0.09950000
182613,-0.43400000,-0.02350000
182614,-0.44100000,-0.07300000
182615,-0.44800000,-0.08950000
182616,-0.42700000,-0.09400000
182617,-0.41950000,-0.10050000
182618,-0.39100000,-0.10600000
182619,-0.36300000,-0.10750000
182620,-0.32700000,-0.10100000
182621,-0.29900000,-0.09200000
182622,-0.27050000,-0.08200000
182623,-0.24900000,-0.07700000
182624,-0.22050000,-0.07500000
182625,-0.20650000,-0.06800000
182626,-0.20650000,-0.06250000
182627,-0.20650000,-0.05500000
182628,-0.22050000,-0.03500000
182629,-0.22750000,-0.01300000
182630,-0.24900000,0.00850000
182631,-0.27050000,0.03200000
182632,-0.29900000,0.05600000
182633,-0.32000000,0.07900000
182634,-0.32700000,0.10050000
182635,-0.33450000,0.11400000
182636,-0.32700000,0.11450000
182637,-0.30600000,0.10200000
182638,-0.25600000,0.07850000
182639,-0.19200000,0.05600000
182640,-0.10700000,0.03300000
182641,-0.00750000,0.01250000
182642,0.09950000,0.00000000
182643,0.22000000,-0.01100000
182644,0.34100000,-0.02250000
182645,0.44750000,-0.03100000
182646,0.54000000,-0.03350000
182647,0.60400000,-0.03800000
182648,0.64700000,-0.04350000
182649,0.66800000,-0.03700000
182650,0.66100000,-0.02800000
182651,0.65400000,-0.02400000
182652,0.61100000,-0.02600000
182653,0.55450000,-0.02800000
182654,0.49750000,-0.03450000
182655,0.43350000,-0.03700000
182656,0.36250000,-0.03700000
182657,0.28400000,-0.04250000
182658,0.21300000,-0.05300000
182659,0.14200000,-0.05600000
182660,0.04150000,-0.03850000
182661,-0.02050000,0.00200000
182662,-0.08900000,0.07150000
182663,-0.15100000,0.22550000
182664,-0.20600000,0.48350000
182665,-0.25400000,0.61950000
182666,-0.28850000,0.46500000
182667,-0.32300000,0.20850000
182668,-0.34350000,0.03250000
182669,-0.35050000,-0.04650000
182670,-0.35050000,-0.06800000
182671,-0.34350000,-0.07050000
182672,-0.33000000,-0.08000000
182673,-0.30900000,-0.09550000
182674,-0.27500000,-0.10500000
182675,-0.23350000,-0.09900000
182676,-0.21300000,-0.08450000
182677,-0.17850000,-0.07500000
182678,-0.15800000,-0.06750000
182679,-0.13750000,-0.06250000
182680,-0.12350000,-0.06250000
182681,-0.12350000,-0.06300000
182682,-0.12350000,-0.06100000
182683,-0.13750000,-0.04950000
182684,-0.15800000,-0.02950000
182685,-0.17850000,-0.00300000
182686,-0.19900000,0.02300000
182687,-0.22650000,0.05050000
182688,-0.25400000,0.08050000
182689,-0.25400000,0.09850000
182690,-0.26100000,0.11250000
182691,-0.24750000,0.11800000
182692,-0.22650000,0.10200000
182693,-0.17150000,0.07300000
182694,-0.11000000,0.04550000
182695,-0.02050000,0.02550000
182696,0.06900000,0.01100000
182697,0.19250000,-0.00550000
182698,0.29600000,-0.02500000
182699,0.41250000,-0.03600000
182700,0.50900000,-0.04500000
182701,0.58450000,-0.05300000
182702,0.63950000,-0.06000000
182703,0.68100000,-0.06100000
182704,0.68100000,-0.05650000
182705,0.68100000,-0.05000000
182706,0.64650000,-0.04800000
182707,0.60500000,-0.05000000
182708,0.55700000,-0.05700000
182709,0.48850000,-0.06200000
182710,0.42650000,-0.06250000
182711,0.35750000,-0.05950000
182712,0.29600000,-0.05500000
182713,0.22000000,-0.05700000
182714,0.15850000,-0.06000000
182715,0.08250000,-0.05600000
182716,0.02100000,-0.03050000
182717,-0.04100000,0.02550000
182718,-0.10300000,0.13850000
182719,-0.15800000,0.35800000
182720,-0.22000000,0.56350000
182721,-0.25400000,0.51350000
182722,-0.29550000,0.26900000
182723,-0.32300000,0.06050000
182724,-0.38850000,-0.04800000
182725,-0.40850000,-0.09150000
182726,-0.40200000,-0.09950000
182727,-0.40200000,-0.09750000
182728,-0.38850000,-0.09800000
182729,-0.36850000,-0.09850000
182730,-0.34850000,-0.09550000
182731,-0.32800000,-0.09500000
182732,-0.30800000,-0.09050000
182733,-0.28800000,-0.08050000
182734,-0.26800000,-0.07150000
182735,-0.26100000,-0.06750000
182736,-0.26800000,-0.05900000
182737,-0.26800000,-0.04750000
182738,-0.28150000,-0.03800000
182739,-0.28800000,-0.02450000
182740,-0.30800000,-0.00200000
182741,-0.32800000,0.02050000
182742,-0.35500000,0.05000000
182743,-0.37500000,0.08450000
182744,-0.39550000,0.11450000
182745,-0.40850000,0.12800000
182746,-0.40850000,0.13100000
182747,-0.40200000,0.12550000
182748,-0.38200000,0.11450000
182749,-0.33500000,0.09150000
182750,-0.28150000,0.06550000
182751,-0.20100000,0.04000000
182752,-0.10700000,0.01800000
182753,-0.00650000,0.00150000
182754,0.09400000,-0.01400000
182755,0.20150000,-0.02550000
182756,0.30200000,-0.03450000
182757,0.37550000,-0.03700000
182758,0.43600000,-0.03500000
182759,0.46950000,-0.02800000
182760,0.48950000,-0.01900000
182761,0.48300000,-0.01600000
182762,0.46250000,-0.02350000
182763,0.41600000,-0.02650000
182764,0.36200000,-0.02800000
182765,0.30850000,-0.03600000
182766,0.24150000,-0.03850000
182767,0.18100000,-0.04200000
182768,0.11400000,-0.04550000
182769,0.04700000,-0.04950000
182770,-0.02000000,-0.04550000
182771,-0.09350000,-0.02100000
182772,-0.16050000,0.02250000
182773,-0.22750000,0.11850000
182774,-0.27450000,0.33300000
182775,-0.33500000,0.56600000
182776,-0.38200000,0.55500000
182777,-0.42200000,0.31900000
182778,-0.45550000,0.10000000
182779,-0.48250000,-0.02650000
182780,-0.49600000,-0.08350000
182781,-0.49600000,-0.09900000
182782,-0.48250000,-0.10450000
182783,-0.46250000,-0.11450000
182784,-0.44200000,-0.12050000
182785,-0.41550000,-0.11600000
182786,-0.38850000,-0.10900000
182787,-0.36200000,-0.09550000
182788,-0.36500000,-0.08500000
182789,-0.34600000,-0.08200000
182790,-0.33300000,-0.07550000
182791,-0.32650000,-0.06750000
182792,-0.32050000,-0.06250000
182793,-0.32650000,-0.05700000
182794,-0.34600000,-0.04300000
182795,-0.35850000,-0.02200000
182796,-0.37800000,0.00100000
182797,-0.39100000,0.02000000
182798,-0.41650000,0.04450000
182799,-0.42300000,0.07700000
182800,-0.42900000,0.09650000
182801,-0.43550000,0.10350000
182802,-0.41000000,0.10500000
182803,-0.37800000,0.09500000
182804,-0.32050000,0.07950000
182805,-0.25600000,0.05700000
182806,-0.16650000,0.03500000
182807,-0.06400000,0.01750000
182808,0.03850000,0.00200000
182809,0.14100000,-0.01450000
182810,0.23700000,-0.02200000
182811,0.32050000,-0.02450000
182812,0.39100000,-0.03450000
182813,0.44200000,-0.03850000
182814,0.46150000,-0.03350000
182815,0.46750000,-0.02200000
182816,0.45500000,-0.00750000
182817,0.42900000,0.00050000
182818,0.38450000,-0.00550000
182819,0.33950000,-0.01550000
182820,0.28850000,-0.01700000
182821,0.23700000,-0.01000000
182822,0.17300000,-0.01250000
182823,0.10900000,-0.02500000
182824,0.06400000,-0.03400000
182825,0.00000000,-0.03100000
182826,-0.05100000,-0.01200000
182827,-0.11550000,0.03400000
182828,-0.16650000,0.12750000
182829,-0.21800000,0.31400000
182830,-0.26250000,0.54750000
182831,-0.30100000,0.57800000
182832,-0.33950000,0.35700000
182833,-0.35850000,0.12700000
182834,-0.37800000,-0.01100000
182835,-0.39100000,-0.07900000
182836,-0.38450000,-0.10450000
182837,-0.37800000,-0.11300000
182838,-0.37150000,-0.11700000
182839,-0.33950000,-0.11700000
182840,-0.32650000,-0.11650000
182841,-0.30100000,-0.11300000
182842,-0.27550000,-0.10500000
182843,-0.26250000,-0.09700000
182844,-0.25000000,-0.08850000
182845,-0.24350000,-0.08600000
182846,-0.24350000,-0.08200000
182847,-0.24350000,-0.07200000
182848,-0.26250000,-0.06250000
182849,-0.26900000,-0.05250000
182850,-0.28850000,-0.03550000
182851,-0.31400000,-0.01100000
182852,-0.34200000,0.01750000
182853,-0.36750000,0.04700000
182854,-0.37400000,0.08050000
182855,-0.39350000,0.10850000
182856,-0.38700000,0.12000000
182857,-0.38700000,0.11300000
182858,-0.34850000,0.09600000
182859,-0.30300000,0.07300000
182860,-0.23200000,0.04850000
182861,-0.15450000,0.02750000
182862,-0.05800000,0.01000000
182863,0.04550000,-0.00300000
182864,0.14850000,-0.01550000
182865,0.23900000,-0.02800000
182866,0.32300000,-0.03600000
182867,0.39400000,-0.04200000
182868,0.43250000,-0.04900000
182869,0.45850000,-0.04750000
182870,0.46500000,-0.03100000
182871,0.44550000,-0.02600000
182872,0.41950000,-0.03400000
182873,0.38750000,-0.04050000
182874,0.33550000,-0.04550000
182875,0.27750000,-0.05100000
182876,0.21950000,-0.04950000
182877,0.15500000,-0.04500000
182878,0.09700000,-0.05450000
182879,0.03900000,-0.06700000
182880,-0.02550000,-0.06400000
182881,-0.08400000,-0.04200000
182882,-0.13550000,0.00800000
182883,-0.20000000,0.10450000
182884,-0.24500000,0.29450000
182885,-0.29050000,0.50950000
182886,-0.32900000,0.51150000
182887,-0.36100000,0.29100000
182888,-0.39350000,0.07850000
182889,-0.40650000,-0.03350000
182890,-0.40650000,-0.08000000
182891,-0.41300000,-0.10100000
182892,-0.40000000,-0.11100000
182893,-0.38050000,-0.11550000
182894,-0.35500000,-0.11700000
182895,-0.32250000,-0.10950000
182896,-0.30300000,-0.09000000
182897,-0.27100000,-0.07200000
182898,-0.25800000,-0.06600000
182899,-0.23200000,-0.06600000
182900,-0.23200000,-0.06350000
182901,-0.22550000,-0.04950000
182902,-0.22550000,-0.03050000
182903,-0.22550000,-0.02000000
182904,-0.23850000,-0.00900000
182905,-0.25150000,0.00700000
182906,-0.25800000,0.02350000
182907,-0.26450000,0.05300000
182908,-0.27750000,0.09200000
182909,-0.27750000,0.12350000
182910,-0.27100000,0.14200000
182911,-0.23850000,0.15000000
182912,-0.19350000,0.15100000
182913,-0.13550000,0.14050000
182914,-0.05150000,0.11900000
182915,0.04550000,0.09950000
182916,0.13300000,0.07500000
182917,0.25900000,0.04500000
182918,0.37200000,0.02300000
182919,0.47800000,0.00650000
182920,0.56450000,-0.00550000
182921,0.63750000,-0.01450000
182922,0.67750000,-0.02000000
182923,0.69750000,-0.02600000
182924,0.69750000,-0.02850000
182925,0.68400000,-0.02400000
182926,0.64400000,-0.01550000
182927,0.59750000,-0.01500000
182928,0.54450000,-0.02300000
182929,0.48500000,-0.03100000
182930,0.42500000,-0.03300000
182931,0.35200000,-0.03200000
182932,0.29200000,-0.04350000
182933,0.23250000,-0.05200000
182934,0.17250000,-0.05400000
182935,0.10650000,-0.04850000
182936,0.04000000,-0.01800000
182937,-0.02650000,0.04000000
182938,-0.07950000,0.13350000
182939,-0.13950000,0.31000000
182940,-0.19250000,0.52600000
182941,-0.23900000,0.54300000
182942,-0.27200000,0.31750000
182943,-0.29900000,0.09350000
182944,-0.32550000,-0.03100000
182945,-0.33200000,-0.08850000
182946,-0.33850000,-0.10950000
182947,-0.32550000,-0.11350000
182948,-0.31200000,-0.10850000
182949,-0.28550000,-0.10600000
182950,-0.26550000,-0.10600000
182951,-0.24550000,-0.10550000
182952,-0.21900000,-0.10050000
182953,-0.20600000,-0.09350000
182954,-0.19900000,-0.08500000
182955,-0.18600000,-0.08500000
182956,-0.19250000,-0.08050000
182957,-0.20600000,-0.06800000
182958,-0.21900000,-0.06250000
182959,-0.23250000,-0.06050000
182960,-0.25900000,-0.04200000
182961,-0.28550000,-0.01050000
182962,-0.30550000,0.01600000
182963,-0.32550000,0.04000000
182964,-0.34550000,0.07100000
182965,-0.35850000,0.08900000
182966,-0.35200000,0.09400000
182967,-0.33200000,0.09600000
182968,-0.29200000,0.09450000
182969,-0.23900000,0.08400000
182970,-0.17250000,0.06450000
182971,-0.07950000,0.04750000
182972,0.02000000,0.03750000
182973,0.11300000,0.03050000
182974,0.22600000,0.02200000
182975,0.31900000,0.01450000
182976,0.39200000,0.01350000
182977,0.45150000,0.01200000
182978,0.49800000,0.00950000
182979,0.51800000,0.00200000
182980,0.50500000,0.00600000
182981,0.50500000,0.02050000
182982,0.47050000,0.02450000
182983,0.44300000,0.01750000
182984,0.40100000,0.00450000
182985,0.36650000,-0.00600000
182986,0.31800000,0.00150000
182987,0.28350000,0.00500000
182988,0.24200000,0.00000000
182989,0.19350000,0.00500000
182990,0.15200000,0.01250000
182991,0.11750000,0.02750000
182992,0.07600000,0.08250000
182993,0.04150000,0.19600000
182994,0.01350000,0.40500000
182995,-0.00700000,0.63350000
182996,-0.02100000,0.62950000
182997,-0.02800000,0.38350000
182998,-0.02100000,0.14100000
182999,0.00000000,0.00100000
183000,0.01350000,-0.05750000
183001,0.04150000,-0.08350000
183002,0.06900000,-0.09650000
183003,0.09650000,-0.09450000
183004,0.12450000,-0.07850000
183005,0.14500000,-0.07250000
183006,0.16600000,-0.07800000
183007,0.17950000,-0.10350000
183008,0.17300000,-0.16850000
183009,0.17300000,-0.18150000
183010,0.15900000,-0.08600000
183011,0.15200000,0.00950000
183012,0.13150000,0.03500000
183013,0.11050000,0.03500000
183014,0.08300000,0.05100000
183015,0.05500000,0.06100000
183016,0.04150000,0.06050000
183017,0.02750000,0.07100000
183018,0.03450000,0.09600000
183019,0.04150000,0.12050000
183020,0.08300000,0.13400000
183021,0.13150000,0.13300000
183022,0.22150000,0.12250000
183023,0.32500000,0.11650000
183024,0.43600000,0.10350000
183025,0.56750000,0.07750000
183026,0.70600000,0.05600000
183027,0.83050000,0.03800000
183028,0.94100000,0.01550000
183029,1.02350000,-0.00750000
183030,1.02350000,-0.02800000
183031,1.02350000,-0.03450000
183032,1.02350000,-0.02650000
183033,1.02350000,-0.02400000
183034,1.02350000,-0.03150000
183035,1.01050000,-0.02450000
183036,0.94800000,-0.01400000
183037,0.87200000,-0.01300000
183038,0.78200000,-0.02200000
183039,0.69900000,-0.03550000
183040,0.60900000,-0.04100000
183041,0.53250000,-0.04200000
183042,0.43600000,-0.04950000
183043,0.35300000,-0.05650000
183044,0.26000000,-0.05650000
183045,0.17550000,-0.04150000
183046,0.08400000,0.00850000
183047,0.00700000,0.12500000
183048,-0.08450000,0.31950000
183049,-0.16200000,0.54050000
183050,-0.23950000,0.59300000
183051,-0.30250000,0.40300000
183052,-0.36600000,0.16350000
183053,-0.41500000,0.00800000
183054,-0.45750000,-0.07800000
183055,-0.49250000,-0.11700000
183056,-0.52050000,-0.13350000
183057,-0.53450000,-0.13850000
183058,-0.54850000,-0.13700000
183059,-0.55550000,-0.13200000
183060,-0.54850000,-0.12650000
183061,-0.54150000,-0.12050000
183062,-0.53450000,-0.11900000
183063,-0.52750000,-0.11500000
183064,-0.52050000,-0.10100000
183065,-0.51350000,-0.08450000
183066,-0.52050000,-0.07500000
183067,-0.52750000,-0.07250000
183068,-0.54150000,-0.06750000
183069,-0.56250000,-0.05500000
183070,-0.58400000,-0.03000000
183071,-0.60500000,-0.00100000
183072,-0.63300000,0.02050000
183073,-0.66100000,0.04350000
183074,-0.68250000,0.07450000
183075,-0.70350000,0.08750000
183076,-0.71750000,0.08150000
183077,-0.71750000,0.07100000
183078,-0.69650000,0.05250000
183079,-0.66100000,0.02850000
183080,-0.61900000,0.01350000
183081,-0.54850000,-0.00150000
183082,-0.47150000,-0.01800000
183083,-0.38700000,-0.03000000
183084,-0.30250000,-0.04550000
183085,-0.21100000,-0.06000000
183086,-0.14100000,-0.06300000
183087,-0.07750000,-0.06100000
183088,-0.03550000,-0.05700000
183089,-0.02150000,-0.05100000
183090,-0.01450000,-0.04250000
183091,-0.02850000,-0.04200000
183092,-0.05650000,-0.04550000
183093,-0.10550000,-0.04400000
183094,-0.15500000,-0.04400000
183095,-0.21100000,-0.04400000
183096,-0.27450000,-0.05100000
183097,-0.35200000,-0.06300000
183098,-0.42200000,-0.06600000
183099,-0.49250000,-0.06050000
183100,-0.56250000,-0.04450000
183101,-0.63300000,0.00100000
183102,-0.69650000,0.11500000
183103,-0.76650000,0.32900000
183104,-0.82300000,0.57350000
183105,-0.88600000,0.61150000
183106,-0.93550000,0.39800000
183107,-0.97750000,0.14900000
183108,-,-0.01150000
183109,-,-0.09400000
183110,-,-0.13000000
183111,-,-0.12550000
183112,-,-0.10900000
183113,-,-0.10600000
183114,-,-0.10600000
183115,-,-0.10550000
183116,-,-0.10100000
183117,-,-0.09900000
183118,-,-0.10150000
183119,-1.00550000,-0.09200000
183120,-0.98400000,-0.06800000
183121,-0.98400000,-0.05800000
183122,-0.98400000,-0.05450000
183123,-0.97700000,-0.03700000
183124,-0.98400000,-0.01900000
183125,-0.99850000,-0.00400000
183126,-1.01250000,0.01300000
183127,-1.01950000,0.04050000
183128,-,0.07400000
183129,-,0.09600000
183130,-,0.10650000
183131,-1.01250000,0.10600000
183132,-0.98400000,0.09500000
183133,-0.93500000,0.08000000
183134,-0.87150000,0.06000000
183135,-0.78750000,0.03700000
183136,-0.68200000,0.01950000
183137,-0.57650000,0.00900000
183138,-0.46400000,-0.00850000
183139,-0.34450000,-0.02400000
183140,-0.25300000,-0.03100000
183141,-0.15450000,-0.03450000
183142,-0.08400000,-0.02650000
183143,-0.03500000,-0.01950000
183144,-0.02100000,-0.01300000
183145,-0.01400000,-0.01350000
183146,-0.02100000,-0.02350000
183147,-0.06300000,-0.03400000
183148,-0.10550000,-0.03650000
183149,-0.16150000,-0.03150000
183150,-0.22500000,-0.02650000
183151,-0.28100000,-0.03450000
183152,-0.34450000,-0.04250000
183153,-0.41450000,-0.03800000
183154,-0.48500000,-0.03200000
183155,-0.55550000,-0.02200000
183156,-0.62550000,0.03050000
183157,-0.68900000,0.16250000
183158,-0.74500000,0.39000000
183159,-0.80850000,0.61350000
183160,-0.85750000,0.60000000
183161,-0.90000000,0.35650000
183162,-0.92800000,0.11500000
183163,-0.95600000,-0.02150000
183164,-0.97700000,-0.08750000
183165,-0.98400000,-0.11600000
183166,-0.97700000,-0.12150000
183167,-0.96300000,-0.11850000
183168,-0.94900000,-0.10900000
183169,-0.92100000,-0.10600000
183170,-0.89300000,-0.10400000
183171,-0.85750000,-0.09600000
183172,-0.68000000,-0.09100000
183173,-0.65100000,-0.08950000
183174,-0.63350000,-0.08300000
183175,-0.61600000,-0.07650000
183176,-0.59850000,-0.07300000
183177,-0.59300000,-0.06750000
183178,-0.59300000,-0.05350000
183179,-0.59850000,-0.03100000
183180,-0.59850000,-0.00250000
183181,-0.60450000,0.02300000
183182,-0.61600000,0.04450000
183183,-0.62750000,0.06350000
183184,-0.63950000,0.08450000
183185,-0.64500000,0.09950000
183186,-0.64500000,0.10000000
183187,-0.63350000,0.08750000
183188,-0.61050000,0.07050000
183189,-0.58100000,0.04900000
183190,-0.53450000,0.02700000
183191,-0.48250000,0.00700000
183192,-0.41850000,-0.00750000
183193,-0.33150000,-0.02200000
183194,-0.26150000,-0.03450000
183195,-0.18000000,-0.04000000
183196,-0.11050000,-0.03850000
183197,-0.04650000,-0.03700000
183198,-0.00600000,-0.03500000
183199,0.02900000,-0.02950000
183200,0.04650000,-0.02100000
183201,0.04650000,-0.01950000
183202,0.04050000,-0.01850000
183203,0.01150000,-0.02600000
183204,-0.01750000,-0.03800000
183205,-0.06950000,-0.04550000
183206,-0.11050000,-0.04750000
183207,-0.16850000,-0.04250000
183208,-0.22650000,-0.04000000
183209,-0.27900000,-0.03550000
183210,-0.34300000,-0.00850000
183211,-0.40100000,0.06300000
183212,-0.45350000,0.20850000
183213,-0.51150000,0.44750000
183214,-0.55200000,0.62550000
183215,-0.59850000,0.52750000
183216,-0.63350000,0.25900000
183217,-0.65700000,0.05650000
183218,-0.68600000,-0.04250000
183219,-0.70350000,-0.08400000
183220,-0.70900000,-0.10500000
183221,-0.69750000,-0.11350000
183222,-0.69150000,-0.11150000
183223,-0.67400000,-0.10300000
183224,-0.64500000,-0.10100000
183225,-0.62200000,-0.10200000
183226,-0.59300000,-0.09400000
183227,-0.56400000,-0.08300000
183228,-0.54050000,-0.07650000
183229,-0.52300000,-0.07050000
183230,-0.50000000,-0.06400000
183231,-0.48800000,-0.06050000
183232,-0.48250000,-0.05450000
183233,-0.48250000,-0.03600000
183234,-0.48250000,-0.00850000
183235,-0.50000000,0.01050000
183236,-0.51150000,0.03000000
183237,-0.52300000,0.05600000
183238,-0.52900000,0.07800000
183239,-0.54650000,0.09950000
183240,-0.55200000,0.11350000
183241,-0.54650000,0.10950000
183242,-0.52900000,0.09250000
183243,-0.50550000,0.06600000
183244,-0.46500000,0.03850000
183245,-0.41250000,0.01950000
183246,-0.33700000,0.00900000
183247,-0.26150000,-0.00200000
183248,-0.18600000,-0.02000000
183249,-0.10450000,-0.03500000
183250,-0.02900000,-0.04250000
183251,0.03500000,-0.03750000
183252,0.09900000,-0.02200000
183253,0.13350000,-0.01100000
183254,0.15100000,-0.00950000
183255,0.16300000,-0.01800000
183256,0.14550000,-0.02600000
183257,0.12800000,-0.02450000
183258,0.09900000,-0.02400000
183259,0.05800000,-0.03300000
183260,0.01150000,-0.04000000
183261,-0.04050000,-0.03950000
183262,-0.08700000,-0.03650000
183263,-0.14550000,-0.03350000
183264,-0.19750000,-0.02450000
183265,-0.25550000,0.01350000
183266,-0.30800000,0.10900000
183267,-0.36050000,0.28400000
183268,-0.40100000,0.51450000
183269,-0.44750000,0.58750000
183270,-0.48800000,0.39100000
183271,-0.51750000,0.14450000
183272,-0.54650000,0.00350000
183273,-0.56950000,-0.06750000
183274,-0.56950000,-0.10550000
183275,-0.56950000,-0.11500000
183276,-0.56950000,-0.10950000
183277,-0.55200000,-0.09950000
183278,-0.52300000,-0.09700000
183279,-0.50550000,-0.10300000
183280,-0.47100000,-0.10100000
183281,-0.44150000,-0.09000000
183282,-0.40700000,-0.07350000
183283,-0.38350000,-0.06600000
183284,-0.36050000,-0.06600000
183285,-0.33700000,-0.06350000
183286,-0.33700000,-0.04950000
183287,-0.32550000,-0.02800000
183288,-0.33150000,-0.00800000
183289,-0.33700000,0.00450000
183290,-0.34300000,0.01550000
183291,-0.35450000,0.04300000
183292,-0.36600000,0.08600000
183293,-0.37800000,0.11550000
183294,-0.38350000,0.11850000
183295,-0.38350000,0.11300000
183296,-0.36600000,0.10900000
183297,-0.34300000,0.09250000
183298,-0.29650000,0.06650000
183299,-0.23250000,0.04400000
183300,0.01850000,0.02100000
183301,0.08300000,-0.00150000
183302,0.14750000,-0.02300000
183303,0.22100000,-0.04000000
183304,0.28100000,-0.04500000
183305,0.33650000,-0.03400000
183306,0.38250000,-0.02350000
183307,0.41500000,-0.01550000
183308,0.43300000,-0.01100000
183309,0.43300000,-0.02200000
183310,0.42850000,-0.03250000
183311,0.41000000,-0.03300000
183312,0.38250000,-0.03300000
183313,0.35050000,-0.03450000
183314,0.31350000,-0.03850000
183315,0.27650000,-0.04200000
183316,0.23950000,-0.04200000
183317,0.19350000,-0.03850000
183318,0.14750000,-0.03450000
183319,0.10150000,-0.01450000
183320,0.06450000,0.05250000
183321,0.02300000,0.18200000
183322,-0.01400000,0.39450000
183323,-0.05050000,0.58500000
183324,-0.08300000,0.53750000
183325,-0.11550000,0.28750000
183326,-0.13350000,0.06650000
183327,-0.15200000,-0.04800000
183328,-0.16600000,-0.09400000
183329,-0.17050000,-0.10600000
183330,-0.16600000,-0.11000000
183331,-0.16150000,-0.11700000
183332,-0.15700000,-0.12900000
183333,-0.14300000,-0.12750000
183334,-0.12900000,-0.11050000
183335,-0.11050000,-0.09200000
183336,-0.09700000,-0.07800000
183337,-0.08750000,-0.07300000
183338,-0.07850000,-0.07250000
183339,-0.06900000,-0.06750000
183340,-0.06900000,-0.06000000
183341,-0.07400000,-0.04300000
183342,-0.07850000,-0.02700000
183343,-0.08750000,-0.01600000
183344,-0.09200000,0.00100000
183345,-0.11050000,0.02900000
183346,-0.12000000,0.06250000
183347,-0.12900000,0.09050000
183348,-0.13850000,0.10750000
183349,-0.14750000,0.11950000
183350,-0.14750000,0.11450000
183351,-0.13850000,0.09500000
183352,-0.11550000,0.07450000
183353,-0.08300000,0.05000000
183354,-0.04600000,0.02750000
183355,0.00900000,0.01000000
183356,0.06900000,-0.00700000
183357,0.13350000,-0.02450000
183358,0.18900000,-0.03550000
183359,0.24900000,-0.04000000
183360,0.30400000,-0.04000000
183361,0.34100000,-0.04100000
183362,0.36850000,-0.03800000
183363,0.38700000,-0.02500000
183364,0.41950000,-0.01300000
183365,0.41450000,-0.01600000
183366,0.38550000,-0.02400000
183367,0.36100000,-0.03150000
183368,0.32200000,-0.03700000
183369,0.27300000,-0.04050000
183370,0.22950000,-0.04500000
183371,0.18550000,-0.05000000
183372,0.13200000,-0.05400000
183373,0.08300000,-0.04650000
183374,0.03450000,-0.01000000
183375,-0.01450000,0.07800000
183376,-0.05850000,0.24700000
183377,-0.10700000,0.49300000
183378,-0.14600000,0.62000000
183379,-0.18500000,0.47050000
183380,-0.20950000,0.20750000
183381,-0.23850000,0.02600000
183382,-0.26300000,-0.06450000
183383,-0.27750000,-0.11100000
183384,-0.28250000,-0.13100000
183385,-0.28250000,-0.13000000
183386,-0.28250000,-0.12150000
183387,-0.27300000,-0.11550000
183388,-0.25800000,-0.11150000
183389,-0.24350000,-0.10050000
183390,-0.22900000,-0.08450000
183391,-0.21450000,-0.07700000
183392,-0.19000000,-0.08000000
183393,-0.18500000,-0.07900000
183394,-0.17550000,-0.07500000
183395,-0.17050000,-0.07100000
183396,-0.17050000,-0.06350000
183397,-0.17550000,-0.04650000
183398,-0.18500000,-0.02350000
183399,-0.19950000,0.00300000
183400,-0.21450000,0.04100000
183401,-0.22400000,0.07900000
183402,-0.24350000,0.09750000
183403,-0.25350000,0.10250000
183404,-0.26300000,0.10000000
183405,-0.25800000,0.09250000
183406,-0.25800000,0.08000000
183407,-0.23850000,0.05500000
183408,-0.20450000,0.02600000
183409,-0.16550000,0.00450000
183410,-0.11700000,-0.00250000
183411,-0.05850000,-0.00900000
183412,0.00500000,-0.02350000
183413,0.07350000,-0.04150000
183414,0.12700000,-0.05300000
183415,0.18550000,-0.05500000
183416,0.22950000,-0.05050000
183417,0.25850000,-0.03450000
183418,0.27300000,-0.02400000
183419,0.27800000,-0.02950000
183420,0.27300000,-0.04300000
183421,0.25350000,-0.04800000
183422,0.22450000,-0.04400000
183423,0.19500000,-0.04050000
183424,0.16100000,-0.04400000
183425,0.11700000,-0.05650000
183426,0.06850000,-0.06200000
183427,0.02950000,-0.05850000
183428,-0.02500000,-0.03400000
183429,-0.08750000,0.02600000
183430,-0.15000000,0.13900000
183431,-0.20650000,0.33700000
183432,-0.25050000,0.55000000
183433,-0.30700000,0.54800000
183434,-0.34450000,0.31700000
183435,-0.37600000,0.09150000
183436,-0.40700000,-0.03600000
183437,-0.43200000,-0.09100000
183438,-0.44450000,-0.11350000
183439,-0.43850000,-0.12200000
183440,-0.43850000,-0.11950000
183441,-0.41950000,-0.11350000
183442,-0.38850000,-0.11500000
183443,-0.36350000,-0.11200000
183444,-0.33800000,-0.10400000
183445,-0.30050000,-0.09200000
183446,-0.27550000,-0.08250000
183447,-0.25050000,-0.08100000
183448,-0.22550000,-0.08000000
183449,-0.21300000,-0.07200000
183450,-0.21300000,-0.06200000
183451,-0.20650000,-0.04750000
183452,-0.21300000,-0.02950000
183453,-0.22550000,-0.00900000
183454,-0.23150000,0.01650000
183455,-0.25050000,0.05000000
183456,-0.25650000,0.09000000
183457,-0.26300000,0.11050000
183458,-0.26300000,0.10750000
183459,-0.25650000,0.09150000
183460,-0.23800000,0.07450000
183461,-0.20650000,0.06350000
183462,-0.15650000,0.05050000
183463,-0.09400000,0.02700000
183464,-0.02500000,-0.00300000
183465,0.06300000,-0.02000000
183466,0.15700000,-0.02350000
183467,0.24450000,-0.02650000
183468,0.33200000,-0.03150000
183469,0.40750000,-0.04350000
183470,0.46400000,-0.05300000
183471,0.50150000,-0.05250000
183472,0.52650000,-0.04100000
183473,0.53250000,-0.03000000
183474,0.52000000,-0.02900000
183475,0.48900000,-0.03950000
183476,0.45750000,-0.05000000
183477,0.40750000,-0.04750000
183478,0.35750000,-0.04850000
183479,0.30700000,-0.05700000
183480,0.25700000,-0.05900000
183481,0.20050000,-0.05700000
183482,0.14450000,-0.04550000
183483,0.08800000,0.00800000
183484,0.02500000,0.12400000
183485,-0.01850000,0.31100000
183486,-0.06900000,0.53250000
183487,-0.11900000,0.58200000
183488,-0.15650000,0.36950000
183489,-0.19400000,0.11050000
183490,-0.21900000,-0.03300000
183491,-0.24400000,-0.09400000
183492,-0.34000000,-0.12600000
183493,-0.34000000,-0.13850000
183494,-0.33350000,-0.13900000
183495,-0.31500000,-0.13150000
183496,-0.29600000,-0.11900000
183497,-0.27100000,-0.11200000
183498,-0.24550000,-0.10800000
183499,-0.22050000,-0.10850000
183500,-0.18900000,-0.10650000
183501,-0.17650000,-0.10250000
183502,-0.15750000,-0.09700000
183503,-0.14500000,-0.08000000
183504,-0.13850000,-0.06450000
183505,-0.14500000,-0.06000000
183506,-0.15100000,-0.04550000
183507,-0.16350000,-0.01700000
183508,-0.18250000,0.01900000
183509,-0.19500000,0.05400000
183510,-0.20800000,0.08200000
183511,-0.22650000,0.09200000
183512,-0.23300000,0.09300000
183513,-0.23950000,0.09100000
183514,-0.22050000,0.08800000
183515,-0.20800000,0.06950000
183516,-0.16350000,0.04050000
183517,-0.10700000,0.01350000
183518,-0.03800000,-0.01750000
183519,0.04400000,-0.04450000
183520,0.13200000,-0.05700000
183521,0.21400000,-0.05550000
183522,0.29600000,-0.04950000
183523,0.35900000,-0.05000000
183524,0.42200000,-0.05850000
183525,0.45350000,-0.06550000
183526,0.48500000,-0.05900000
183527,0.48500000,-0.04500000
183528,0.46600000,-0.04050000
183529,0.44100000,-0.04550000
183530,0.40300000,-0.05550000
183531,0.35250000,-0.06150000
183532,0.30850000,-0.06600000
183533,0.25200000,-0.06950000
183534,0.18900000,-0.07450000
183535,0.12600000,-0.07600000
183536,0.05650000,-0.05800000
183537,0.00000000,-0.00150000
183538,-0.06300000,0.10300000
183539,-0.11950000,0.27500000
183540,-0.17650000,0.49000000
183541,-0.22650000,0.55350000
183542,-0.27700000,0.35400000
183543,-0.32750000,0.09050000
183544,-0.37150000,-0.05950000
183545,-0.40950000,-0.11800000
183546,-0.42800000,-0.13850000
183547,-0.44100000,-0.14350000
183548,-0.46600000,-0.14150000
183549,-0.45950000,-0.13450000
183550,-0.46600000,-0.12800000
183551,-0.45950000,-0.12450000
183552,-0.44100000,-0.11950000
183553,-0.42200000,-0.11000000
183554,-0.40950000,-0.10250000
183555,-0.39050000,-0.10100000
183556,-0.40650000,-0.09500000
183557,-0.40000000,-0.07900000
183558,-0.38700000,-0.06400000
183559,-0.39350000,-0.04950000
183560,-0.40000000,-0.02800000
183561,-0.41950000,-0.00600000
183562,-0.43850000,0.01800000
183563,-0.45800000,0.05000000
183564,-0.49050000,0.08050000
183565,-0.50950000,0.09800000
183566,-0.52900000,0.10350000
183567,-0.54850000,0.10000000
183568,-0.54850000,0.08900000
183569,-0.54850000,0.07150000
183570,-0.52900000,0.04900000
183571,-0.49650000,0.02750000
183572,-0.45800000,0.00700000
183573,-0.40000000,-0.01300000
183574,-0.32900000,-0.03100000
183575,-0.25150000,-0.04700000
183576,-0.18050000,-0.05500000
183577,-0.09650000,-0.05200000
183578,-0.01900000,-0.05550000
183579,0.03250000,-0.05500000
183580,0.07750000,-0.03700000
183581,0.11650000,-0.02600000
183582,0.12300000,-0.02550000
183583,0.12300000,-0.02600000
183584,0.11000000,-0.02800000
183585,0.07750000,-0.03650000
183586,0.04550000,-0.04200000
183587,0.00000000,-0.04900000
183588,-0.05800000,-0.05350000
183589,-0.11600000,-0.05950000
183590,-0.18050000,-0.05450000
183591,-0.23850000,-0.02150000
183592,-0.30300000,0.06000000
183593,-0.36100000,0.20450000
183594,-0.41950000,0.43100000
183595,-0.47100000,0.60850000
183596,-0.52900000,0.51550000
183597,-0.57400000,0.23700000
183598,-0.61300000,0.02750000
183599,-0.64500000,-0.06550000
183600,-0.67750000,-0.10200000
183601,-0.69050000,-0.11250000
183602,-0.69050000,-0.11400000
183603,-0.70300000,-0.11300000
183604,-0.69700000,-0.10500000
183605,-0.67750000,-0.09900000
183606,-0.65800000,-0.09900000
183607,-0.63200000,-0.09650000
183608,-0.60650000,-0.08450000
183609,-0.58050000,-0.07050000
183610,-0.56100000,-0.06200000
183611,-0.54200000,-0.05950000
183612,-0.52250000,-0.06000000
183613,-0.52250000,-0.05900000
183614,-0.51600000,-0.04350000
183615,-0.50950000,-0.01650000
183616,-0.51600000,0.01550000
183617,-0.52900000,0.04850000
183618,-0.54200000,0.07750000
183619,-0.54850000,0.09600000
183620,-0.47600000,0.10700000
183621,-0.48200000,0.11750000
183622,-0.46950000,0.11750000
183623,-0.45700000,0.09650000
183624,-0.42500000,0.06650000
183625,-0.38700000,0.04050000
183626,-0.32350000,0.02350000
183627,-0.26000000,0.01400000
183628,-0.18400000,-0.00400000
183629,-0.09550000,-0.03000000
183630,-0.01300000,-0.04350000
183631,0.06350000,-0.04050000
183632,0.13300000,-0.03650000
183633,0.18400000,-0.03300000
183634,0.22850000,-0.01900000
183635,0.25350000,-0.01300000
183636,0.26650000,-0.02000000
183637,0.25350000,-0.02750000
183638,0.22850000,-0.03350000
183639,0.20900000,-0.04100000
183640,0.15850000,-0.04050000
183641,0.11400000,-0.03600000
183642,0.06350000,-0.03850000
183643,0.01250000,-0.04650000
183644,-0.04450000,-0.04050000
183645,-0.10150000,-0.02100000
183646,-0.15850000,0.02950000
183647,-0.20950000,0.14050000
183648,-0.26650000,0.34850000
183649,-0.31100000,0.57200000
183650,-0.36150000,0.56500000
183651,-0.40600000,0.31700000
183652,-0.44400000,0.07800000
183653,-0.46950000,-0.04550000
183654,-0.48850000,-0.09050000
183655,-0.50150000,-0.10350000
183656,-0.50150000,-0.10650000
183657,-0.49500000,-0.10600000
183658,-0.47600000,-0.11150000
183659,-0.45050000,-0.11500000
183660,-0.43150000,-0.10600000
183661,-0.39350000,-0.09000000
183662,-0.36800000,-0.07350000
183663,-0.34900000,-0.06450000
183664,-0.31750000,-0.06400000
183665,-0.29850000,-0.06650000
183666,-0.27900000,-0.06750000
183667,-0.27300000,-0.06750000
183668,-0.26650000,-0.05300000
183669,-0.26650000,-0.02250000
183670,-0.26650000,0.00800000
183671,-0.27900000,0.03600000
183672,-0.28550000,0.06500000
183673,-0.29850000,0.09400000
183674,-0.30450000,0.11250000
183675,-0.31100000,0.11200000
183676,-0.31100000,0.10000000
183677,-0.28550000,0.08850000
183678,-0.26000000,0.06750000
183679,-0.20300000,0.04200000
183680,-0.13350000,0.02350000
183681,-0.05700000,0.01100000
183682,0.03150000,-0.00350000
183683,0.12050000,-0.01750000
183684,0.23050000,-0.02450000
183685,0.31350000,-0.02800000
183686,0.37300000,-0.03500000
183687,0.42000000,-0.03800000
183688,0.46150000,-0.03150000
183689,0.47350000,-0.02300000
183690,0.47350000,-0.02700000
183691,0.46750000,-0.03500000
183692,0.43800000,-0.03950000
183693,0.40250000,-0.03650000
183694,0.36100000,-0.03350000
183695,0.31950000,-0.03300000
183696,0.27200000,-0.03900000
183697,0.21900000,-0.04600000
183698,0.16550000,-0.04050000
183699,0.11800000,-0.01400000
183700,0.06500000,0.04700000
183701,0.00550000,0.16250000
183702,-0.04150000,0.37400000
183703,-0.08900000,0.57450000
183704,-0.13050000,0.52350000
183705,-0.17200000,0.26600000
183706,-0.20150000,0.05300000
183707,-0.23100000,-0.04850000
183708,-0.24900000,-0.08550000
183709,-0.26100000,-0.10050000
183710,-0.26100000,-0.10400000
183711,-0.26100000,-0.10250000
183712,-0.24900000,-0.10700000
183713,-0.22500000,-0.10800000
183714,-0.20150000,-0.09900000
183715,-0.17200000,-0.08450000
183716,-0.15400000,-0.07500000
183717,-0.12450000,-0.07150000
183718,-0.10100000,-0.07050000
183719,-0.07700000,-0.06500000
183720,-0.07150000,-0.05650000
183721,-0.06550000,-0.04250000
183722,-0.05950000,-0.02250000
183723,-0.06550000,-0.00700000
183724,-0.07150000,0.01300000
183725,-0.07700000,0.04250000
183726,-0.10100000,0.07800000
183727,-0.10700000,0.11000000
183728,-0.10700000,0.12500000
183729,-0.10100000,0.12600000
183730,-0.09500000,0.11450000
183731,-0.05950000,0.09050000
183732,-0.01800000,0.07250000
183733,0.02950000,0.06100000
183734,0.10050000,0.04150000
183735,0.17750000,0.01850000
183736,0.26050000,-0.00150000
183737,0.34900000,-0.01950000
183738,0.43200000,-0.03100000
183739,0.49150000,-0.03350000
183740,0.55050000,-0.03300000
183741,0.58000000,-0.03100000
183742,0.60950000,-0.02050000
183743,0.60950000,-0.00950000
183744,0.59800000,-0.00750000
183745,0.57400000,-0.01500000
183746,0.53850000,-0.03200000
183747,0.49700000,-0.03900000
183748,0.46800000,-0.03700000
183749,0.40850000,-0.04350000
