'sample interval','PLETH','III'
'0.008 sec','mV','mV'
162001,-0.24800000,-0.13600000
162002,-0.25200000,-0.20400000
162003,-0.25800000,-0.25150000
162004,-0.27000000,-0.27000000
162005,-0.28450000,-0.26750000
162006,-0.30050000,-0.23250000
162007,-0.31700000,-0.15550000
162008,-0.33700000,-0.07350000
162009,-0.35950000,-0.01550000
162010,-0.38400000,0.01050000
162011,-0.40650000,0.02250000
162012,-0.42450000,0.02500000
162013,-0.44900000,0.02350000
162014,-0.47150000,0.02400000
162015,-0.48750000,0.02550000
162016,-0.51150000,0.02500000
162017,-0.53000000,0.02500000
162018,-0.54650000,0.02500000
162019,-0.56100000,0.02450000
162020,-0.57350000,0.02200000
162021,-0.58550000,0.02200000
162022,-0.59200000,0.02700000
162023,-0.59800000,0.03350000
162024,-0.60000000,0.03600000
162025,-0.60000000,0.03500000
162026,-0.59400000,0.03900000
162027,-0.58550000,0.04200000
162028,-0.57350000,0.04350000
162029,-0.55300000,0.04700000
162030,-0.52200000,0.04850000
162031,-0.48700000,0.04400000
162032,-0.44200000,0.04200000
162033,-0.38450000,0.03650000
162034,-0.31850000,0.03050000
162035,-0.24050000,0.02700000
162036,-0.15600000,0.02100000
162037,-0.06800000,0.01400000
162038,0.02250000,0.00750000
162039,0.10900000,0.00500000
162040,0.18900000,0.00300000
162041,0.26100000,0.00300000
162042,0.32250000,0.00450000
162043,0.36750000,0.00750000
162044,0.39850000,0.00850000
162045,0.41500000,0.01100000
162046,0.41900000,0.02150000
162047,0.41100000,0.04250000
162048,0.38400000,0.06650000
162049,0.34950000,0.08550000
162050,0.30200000,0.10700000
162051,0.24650000,0.11950000
162052,0.17850000,0.11500000
162053,0.11100000,0.09600000
162054,0.03900000,0.07050000
162055,-0.03300000,0.04400000
162056,-0.10300000,0.02500000
162057,-0.16450000,0.01250000
162058,-0.22200000,0.00150000
162059,-0.26500000,-0.00550000
162060,-0.29800000,-0.01450000
162061,-0.31650000,-0.02350000
162062,-0.32650000,-0.02650000
162063,-0.32650000,-0.02600000
162064,-0.32050000,-0.02600000
162065,-0.30800000,-0.02600000
162066,-0.29400000,-0.02850000
162067,-0.27550000,-0.02350000
162068,-0.26300000,-0.00600000
162069,-0.24850000,0.00500000
162070,-0.23850000,-0.02600000
162071,-0.23850000,-0.09000000
162072,-0.23650000,-0.14850000
162073,-0.24050000,-0.20350000
162074,-0.24650000,-0.24750000
162075,-0.25700000,-0.27050000
162076,-0.27150000,-0.25850000
162077,-0.28750000,-0.20000000
162078,-0.30600000,-0.11550000
162079,-0.32450000,-0.04000000
162080,-0.32700000,0.00450000
162081,-0.34750000,0.01950000
162082,-0.37000000,0.02350000
162083,-0.39250000,0.02550000
162084,-0.41700000,0.02650000
162085,-0.43750000,0.02850000
162086,-0.46050000,0.03050000
162087,-0.47700000,0.03250000
162088,-0.49550000,0.03200000
162089,-0.50950000,0.03250000
162090,-0.52400000,0.02950000
162091,-0.53250000,0.03250000
162092,-0.54050000,0.03550000
162093,-0.54850000,0.03600000
162094,-0.55050000,0.03800000
162095,-0.55300000,0.04450000
162096,-0.54850000,0.04750000
162097,-0.54050000,0.04700000
162098,-0.53000000,0.05200000
162099,-0.51400000,0.05650000
162100,-0.49100000,0.05850000
162101,-0.46050000,0.05600000
162102,-0.42150000,0.05050000
162103,-0.37200000,0.04700000
162104,-0.31250000,0.04150000
162105,-0.24250000,0.03400000
162106,-0.16650000,0.02700000
162107,-0.08250000,0.02150000
162108,0.00400000,0.01600000
162109,0.09050000,0.01050000
162110,0.17450000,0.00550000
162111,0.25050000,0.00150000
162112,0.31650000,0.00200000
162113,0.37400000,0.00500000
162114,0.41500000,0.01050000
162115,0.44150000,0.01100000
162116,0.45400000,0.01650000
162117,0.45400000,0.03100000
162118,0.43950000,0.05600000
162119,0.40900000,0.08050000
162120,0.36750000,0.09950000
162121,0.31850000,0.11400000
162122,0.25900000,0.12000000
162123,0.19500000,0.11100000
162124,0.12300000,0.08900000
162125,0.05150000,0.06200000
162126,-0.01850000,0.03700000
162127,-0.08650000,0.01950000
162128,-0.14400000,0.00950000
162129,-0.19550000,0.00100000
162130,-0.23250000,-0.00550000
162131,-0.25900000,-0.01100000
162132,-0.27550000,-0.01500000
162133,-0.27950000,-0.01800000
162134,-0.27550000,-0.01900000
162135,-0.26700000,-0.01850000
162136,-0.25500000,-0.01750000
162137,-0.23850000,-0.02000000
162138,-0.22000000,-0.01450000
162139,-0.20750000,0.00150000
162140,-0.19550000,-0.00300000
162141,-0.18900000,-0.04850000
162142,-0.18700000,-0.10900000
162143,-0.18700000,-0.16700000
162144,-0.17650000,-0.21550000
162145,-0.18700000,-0.25150000
162146,-0.19950000,-0.26250000
162147,-0.21600000,-0.22850000
162148,-0.23500000,-0.15700000
162149,-0.25350000,-0.08050000
162150,-0.27650000,-0.01500000
162151,-0.29700000,0.01750000
162152,-0.32200000,0.02650000
162153,-0.34300000,0.02900000
162154,-0.36600000,0.03200000
162155,-0.39050000,0.03300000
162156,-0.40950000,0.03450000
162157,-0.43250000,0.03450000
162158,-0.45100000,0.03550000
162159,-0.46950000,0.03600000
162160,-0.48400000,0.03600000
162161,-0.49450000,0.03800000
162162,-0.50500000,0.04000000
162163,-0.51350000,0.04150000
162164,-0.51750000,0.04350000
162165,-0.51550000,0.04250000
162166,-0.51350000,0.04550000
162167,-0.51100000,0.05200000
162168,-0.50100000,0.05650000
162169,-0.48850000,0.05850000
162170,-0.46950000,0.06100000
162171,-0.44450000,0.06200000
162172,-0.41150000,0.06100000
162173,-0.36600000,0.05500000
162174,-0.31150000,0.05100000
162175,-0.25150000,0.04550000
162176,-0.17850000,0.03600000
162177,-0.09750000,0.02750000
162178,-0.01250000,0.02300000
162179,0.07050000,0.01800000
162180,0.16000000,0.01450000
162181,0.23900000,0.01200000
162182,0.31600000,0.01050000
162183,0.37600000,0.01100000
162184,0.42600000,0.01250000
162185,0.46150000,0.01450000
162186,0.48400000,0.01600000
162187,0.49250000,0.02550000
162188,0.48650000,0.04500000
162189,0.46550000,0.06750000
162190,0.43000000,0.09600000
162191,0.38650000,0.12300000
162192,0.33050000,0.13900000
162193,0.26600000,0.13500000
162194,0.19750000,0.11500000
162195,0.12450000,0.09250000
162196,0.05000000,0.06600000
162197,-0.01850000,0.03700000
162198,-0.08300000,0.01850000
162199,-0.14150000,0.01150000
162200,-0.18500000,0.00150000
162201,-0.22050000,-0.00350000
162202,-0.24100000,-0.00550000
162203,-0.25150000,-0.00750000
162204,-0.25350000,-0.00700000
162205,-0.24750000,-0.00750000
162206,-0.23300000,-0.00700000
162207,-0.21800000,-0.00750000
162208,-0.18000000,-0.00650000
162209,-0.16550000,-0.00050000
162210,-0.15050000,0.01250000
162211,-0.14450000,0.00550000
162212,-0.13600000,-0.03900000
162213,-0.13600000,-0.09700000
162214,-0.14250000,-0.15250000
162215,-0.14850000,-0.20050000
162216,-0.16100000,-0.23350000
162217,-0.17350000,-0.24800000
162218,-0.19250000,-0.22250000
162219,-0.20950000,-0.14750000
162220,-0.23450000,-0.06250000
162221,-0.25300000,0.00000000
162222,-0.27850000,0.02500000
162223,-0.30150000,0.03450000
162224,-0.32450000,0.04000000
162225,-0.34750000,0.04150000
162226,-0.36650000,0.03950000
162227,-0.38950000,0.04000000
162228,-0.40800000,0.04450000
162229,-0.42500000,0.04700000
162230,-0.44400000,0.04200000
162231,-0.45400000,0.04150000
162232,-0.46700000,0.04900000
162233,-0.47500000,0.05450000
162234,-0.48150000,0.05500000
162235,-0.48550000,0.05650000
162236,-0.48750000,0.06000000
162237,-0.48550000,0.06350000
162238,-0.47950000,0.06550000
162239,-0.47100000,0.06850000
162240,-0.45650000,0.07250000
162241,-0.43950000,0.07300000
162242,-0.41050000,0.07250000
162243,-0.37700000,0.06900000
162244,-0.33050000,0.06700000
162245,-0.27650000,0.06450000
162246,-0.21350000,0.06150000
162247,-0.13800000,0.05500000
162248,-0.05650000,0.04500000
162249,0.03150000,0.03450000
162250,0.11950000,0.02750000
162251,0.20750000,0.02500000
162252,0.28900000,0.02300000
162253,0.36000000,0.02000000
162254,0.42300000,0.01750000
162255,0.47550000,0.01950000
162256,0.51100000,0.02200000
162257,0.53200000,0.02550000
162258,0.53800000,0.03050000
162259,0.53000000,0.04550000
162260,0.50700000,0.07150000
162261,0.47350000,0.09800000
162262,0.42300000,0.12150000
162263,0.36450000,0.13750000
162264,0.30150000,0.14000000
162265,0.22850000,0.12550000
162266,0.15500000,0.09900000
162267,0.08200000,0.06800000
162268,0.00850000,0.04150000
162269,-0.05650000,0.02400000
162270,-0.10900000,0.01650000
162271,-0.15700000,0.01200000
162272,-0.18550000,0.00650000
162273,-0.20850000,0.00150000
162274,-0.21900000,-0.00350000
162275,-0.21900000,-0.00400000
162276,-0.21250000,-0.00400000
162277,-0.19800000,-0.00400000
162278,-0.18350000,-0.00200000
162279,-0.16900000,0.00000000
162280,-0.15450000,0.00650000
162281,-0.13950000,0.01700000
162282,-0.13350000,0.01300000
162283,-0.12500000,-0.02850000
162284,-0.12700000,-0.08550000
162285,-0.12950000,-0.14200000
162286,-0.13750000,-0.19400000
162287,-0.14800000,-0.22200000
162288,-0.16250000,-0.22600000
162289,-0.17950000,-0.20200000
162290,-0.19800000,-0.13300000
162291,-0.21700000,-0.04950000
162292,-0.24000000,0.00750000
162293,-0.26500000,0.03550000
162294,-0.29000000,0.04500000
162295,-0.31300000,0.04900000
162296,-0.33350000,0.05600000
162297,-0.35650000,0.05800000
162298,-0.37950000,0.05450000
162299,-0.39850000,0.05650000
162300,-0.41500000,0.06200000
162301,-0.42950000,0.06500000
162302,-0.44400000,0.06500000
162303,-0.45450000,0.06650000
162304,-0.46500000,0.07100000
162305,-0.46950000,0.07600000
162306,-0.47750000,0.07800000
162307,-0.47550000,0.08000000
162308,-0.47550000,0.08400000
162309,-0.47150000,0.08900000
162310,-0.46300000,0.09500000
162311,-0.45050000,0.09800000
162312,-0.43400000,0.09650000
162313,-0.40650000,0.09300000
162314,-0.37350000,0.09300000
162315,-0.32950000,0.09100000
162316,-0.27550000,0.08350000
162317,-0.21500000,0.07450000
162318,-0.13950000,0.06900000
162319,-0.06050000,0.06350000
162320,0.02500000,0.05600000
162321,0.11050000,0.04700000
162322,0.19600000,0.03750000
162323,0.27950000,0.03600000
162324,0.35050000,0.03750000
162325,0.41500000,0.03800000
162326,0.46300000,0.03650000
162327,0.49850000,0.03600000
162328,0.52150000,0.04150000
162329,0.52800000,0.05100000
162330,0.52150000,0.07250000
162331,0.50050000,0.10650000
162332,0.46300000,0.13650000
162333,0.41950000,0.15750000
162334,0.36100000,0.16950000
162335,0.29650000,0.16600000
162336,0.22750000,0.15300000
162337,0.15250000,0.13100000
162338,0.08150000,0.09800000
162339,0.01050000,0.07150000
162340,-0.05400000,0.05750000
162341,-0.10650000,0.04900000
162342,-0.15000000,0.04200000
162343,-0.18350000,0.03750000
162344,-0.20850000,0.03450000
162345,-0.21900000,0.03150000
162346,-0.22100000,0.02950000
162347,-0.21700000,0.03050000
162348,-0.20450000,0.03250000
162349,-0.18750000,0.03200000
162350,-0.17100000,0.03350000
162351,-0.15450000,0.04400000
162352,-0.14400000,0.05750000
162353,-0.13150000,0.03600000
162354,-0.12700000,-0.02250000
162355,-0.12700000,-0.08900000
162356,-0.12700000,-0.15250000
162357,-0.13550000,-0.19450000
162358,-0.14600000,-0.20800000
162359,-0.15850000,-0.19950000
162360,-0.17500000,-0.15000000
162361,-0.19400000,-0.06800000
162362,-0.21500000,0.00850000
162363,-0.23350000,0.05350000
162364,-0.25650000,0.07450000
162365,-0.27950000,0.08550000
162366,-0.30050000,0.09550000
162367,-0.32100000,0.10200000
162368,-0.34200000,0.10050000
162369,-0.36300000,0.09800000
162370,-0.38600000,0.09600000
162371,-0.40250000,0.09450000
162372,-0.41700000,0.09650000
162373,-0.43150000,0.09550000
162374,-0.44400000,0.09500000
162375,-0.45050000,0.10000000
162376,-0.45900000,0.10350000
162377,-0.46500000,0.09500000
162378,-0.46500000,0.08800000
162379,-0.46300000,0.08850000
162380,-0.46100000,0.09450000
162381,-0.45250000,0.09600000
162382,-0.43800000,0.09700000
162383,-0.41700000,0.09750000
162384,-0.38600000,0.09600000
162385,-0.35050000,0.09250000
162386,-0.30050000,0.08600000
162387,-0.24200000,0.07850000
162388,-0.17100000,0.07250000
162389,-0.09400000,0.06350000
162390,-0.01050000,0.06000000
162391,0.07700000,0.05250000
162392,0.16700000,0.04150000
162393,0.25250000,0.03450000
162394,0.32950000,0.03150000
162395,0.40050000,0.02950000
162396,0.45900000,0.02900000
162397,0.50300000,0.03100000
162398,0.53400000,0.03600000
162399,0.54450000,0.04350000
162400,0.53200000,0.05800000
162401,0.51550000,0.08100000
162402,0.48400000,0.10850000
162403,0.44450000,0.13250000
162404,0.39250000,0.15000000
162405,0.33200000,0.15300000
162406,0.26500000,0.14550000
162407,0.19400000,0.12950000
162408,0.11900000,0.10250000
162409,0.04800000,0.07900000
162410,-0.02050000,0.06150000
162411,-0.08100000,0.04900000
162412,-0.13100000,0.03450000
162413,-0.17300000,0.02550000
162414,-0.20450000,0.02200000
162415,-0.22100000,0.02000000
162416,-0.22700000,0.01700000
162417,-0.22500000,0.01450000
162418,-0.21900000,0.01050000
162419,-0.20450000,0.01200000
162420,-0.18950000,0.01300000
162421,-0.17500000,0.01600000
162422,-0.16450000,0.03000000
162423,-0.15200000,0.03900000
162424,-0.14800000,0.00300000
162425,-0.14600000,-0.07000000
162426,-0.15000000,-0.15000000
162427,-0.15400000,-0.21400000
162428,-0.16650000,-0.24450000
162429,-0.17900000,-0.24950000
162430,-0.19600000,-0.22600000
162431,-0.21250000,-0.16000000
162432,-0.23350000,-0.06850000
162433,-0.25200000,-0.00200000
162434,-0.27300000,0.02850000
162435,-0.29600000,0.04150000
162436,-0.31900000,0.04850000
162437,-0.34200000,0.05450000
162438,-0.36300000,0.05500000
162439,-0.38550000,0.05800000
162440,-0.40450000,0.05750000
162441,-0.42350000,0.05450000
162442,-0.44000000,0.05500000
162443,-0.45450000,0.05950000
162444,-0.46900000,0.06150000
162445,-0.47950000,0.05700000
162446,-0.49000000,0.05450000
162447,-0.49400000,0.05500000
162448,-0.50050000,0.05750000
162449,-0.50050000,0.05450000
162450,-0.49850000,0.05000000
162451,-0.49400000,0.05050000
162452,-0.48800000,0.05550000
162453,-0.47150000,0.05500000
162454,-0.44850000,0.05100000
162455,-0.41700000,0.05250000
162456,-0.37750000,0.05250000
162457,-0.32750000,0.04350000
162458,-0.26450000,0.03300000
162459,-0.19600000,0.02650000
162460,-0.11650000,0.02150000
162461,-0.03300000,0.01750000
162462,0.05450000,0.01250000
162463,0.14200000,0.00650000
162464,0.21550000,0.00150000
162465,0.29150000,-0.00500000
162466,0.35450000,-0.00550000
162467,0.40950000,0.00050000
162468,0.44550000,0.00500000
162469,0.46650000,0.00550000
162470,0.47500000,0.00850000
162471,0.46650000,0.01650000
162472,0.44300000,0.03400000
162473,0.40950000,0.05950000
162474,0.36300000,0.08300000
162475,0.30800000,0.10350000
162476,0.24300000,0.11400000
162477,0.17300000,0.10250000
162478,0.10150000,0.08050000
162479,0.02550000,0.05500000
162480,-0.04600000,0.03400000
162481,-0.11150000,0.01800000
162482,-0.17050000,0.00350000
162483,-0.21500000,-0.01050000
162484,-0.25500000,-0.02000000
162485,-0.27800000,-0.02150000
162486,-0.29300000,-0.02050000
162487,-0.29700000,-0.02350000
162488,-0.29100000,-0.02950000
162489,-0.28050000,-0.03300000
162490,-0.27000000,-0.03300000
162491,-0.25300000,-0.03300000
162492,-0.23800000,-0.03200000
162493,-0.22750000,-0.02200000
162494,-0.21900000,-0.00950000
162495,-0.21050000,-0.03450000
162496,-0.21050000,-0.10000000
162497,-0.21500000,-0.16750000
162498,-0.22550000,-0.22700000
162499,-0.23400000,-0.26850000
162500,-0.24850000,-0.29050000
162501,-0.26550000,-0.28400000
162502,-0.28450000,-0.23000000
162503,-0.30350000,-0.14600000
162504,-0.32450000,-0.06400000
162505,-0.34350000,-0.01050000
162506,-0.36250000,0.01050000
162507,-0.38800000,0.01600000
162508,-0.40900000,0.02000000
162509,-0.42800000,0.02150000
162510,-0.44900000,0.01800000
162511,-0.47000000,0.01450000
162512,-0.48500000,0.01400000
162513,-0.50200000,0.01400000
162514,-0.51650000,0.01400000
162515,-0.53150000,0.01400000
162516,-0.54000000,0.01400000
162517,-0.54800000,0.01400000
162518,-0.55450000,0.01750000
162519,-0.55900000,0.02100000
162520,-0.55900000,0.02000000
162521,-0.55650000,0.01600000
162522,-0.54800000,0.01400000
162523,-0.54000000,0.01550000
162524,-0.52500000,0.01850000
162525,-0.50400000,0.02100000
162526,-0.47650000,0.02200000
162527,-0.43650000,0.02150000
162528,-0.39350000,0.01650000
162529,-0.33400000,0.01350000
162530,-0.26350000,0.01050000
162531,-0.18700000,0.00550000
162532,-0.10200000,0.00100000
162533,-0.01300000,-0.00200000
162534,0.07650000,-0.00550000
162535,0.16150000,-0.00950000
162536,0.24000000,-0.01300000
162537,0.31000000,-0.01600000
162538,0.36550000,-0.01500000
162539,0.41000000,-0.01100000
162540,0.43750000,-0.00650000
162541,0.45250000,-0.00550000
162542,0.45050000,-0.00300000
162543,0.43350000,0.01000000
162544,0.40550000,0.03200000
162545,0.36550000,0.05650000
162546,0.31450000,0.08050000
162547,0.25700000,0.10100000
162548,0.18900000,0.10550000
162549,0.11900000,0.09050000
162550,0.04450000,0.06650000
162551,-0.02550000,0.04000000
162552,-0.09350000,0.01800000
162553,-0.14900000,0.00300000
162554,-0.20200000,-0.01250000
162555,-0.23800000,-0.02900000
162556,-0.26800000,-0.03650000
162557,-0.28500000,-0.03500000
162558,-0.28900000,-0.02950000
162559,-0.28900000,-0.02800000
162560,-0.28050000,-0.02950000
162561,-0.26350000,-0.03150000
162562,-0.25100000,-0.03350000
162563,-0.23400000,-0.03300000
162564,-0.22100000,-0.02900000
162565,-0.20850000,-0.01350000
162566,-0.20000000,-0.00800000
162567,-0.19800000,-0.04500000
162568,-0.19800000,-0.10650000
162569,-0.20200000,-0.16400000
162570,-0.21050000,-0.21950000
162571,-0.22100000,-0.25550000
162572,-0.23800000,-0.26800000
162573,-0.25500000,-0.24900000
162574,-0.27200000,-0.18600000
162575,-0.29150000,-0.10250000
162576,-0.31250000,-0.03550000
162577,-0.33400000,0.00400000
162578,-0.35700000,0.01950000
162579,-0.37850000,0.02500000
162580,-0.39750000,0.02500000
162581,-0.41900000,0.02500000
162582,-0.43800000,0.02800000
162583,-0.45500000,0.02900000
162584,-0.47200000,0.02900000
162585,-0.48450000,0.02750000
162586,-0.49950000,0.02700000
162587,-0.51250000,0.02800000
162588,-0.52100000,0.02900000
162589,-0.52700000,0.02850000
162590,-0.53150000,0.02550000
162591,-0.53350000,0.02700000
162592,-0.52050000,0.03200000
162593,-0.51600000,0.03300000
162594,-0.51200000,0.03550000
162595,-0.49900000,0.04150000
162596,-0.48200000,0.04800000
162597,-0.46050000,0.04800000
162598,-0.42850000,0.04150000
162599,-0.38550000,0.03600000
162600,-0.33400000,0.03550000
162601,-0.27400000,0.03050000
162602,-0.20350000,0.02400000
162603,-0.12450000,0.01950000
162604,-0.04100000,0.01600000
162605,0.04900000,0.00900000
162606,0.13450000,0.00100000
162607,0.21600000,-0.00350000
162608,0.29500000,-0.00400000
162609,0.35750000,-0.00350000
162610,0.40850000,-0.00050000
162611,0.44950000,0.00000000
162612,0.47300000,0.00250000
162613,0.48600000,0.00450000
162614,0.47950000,0.01100000
162615,0.46200000,0.02700000
162616,0.43000000,0.05150000
162617,0.38500000,0.07400000
162618,0.33400000,0.09100000
162619,0.27150000,0.10600000
162620,0.20300000,0.11500000
162621,0.13050000,0.10400000
162622,0.05750000,0.08000000
162623,-0.01100000,0.05200000
162624,-0.07500000,0.03000000
162625,-0.13500000,0.01250000
162626,-0.18000000,0.00250000
162627,-0.21650000,-0.00050000
162628,-0.23800000,-0.00300000
162629,-0.25300000,-0.00400000
162630,-0.25500000,-0.00700000
162631,-0.25050000,-0.00750000
162632,-0.23800000,-0.00750000
162633,-0.22500000,-0.01100000
162634,-0.21000000,-0.01300000
162635,-0.19500000,-0.01100000
162636,-0.18200000,-0.00300000
162637,-0.17150000,0.00950000
162638,-0.16300000,0.00100000
162639,-0.16050000,-0.04500000
162640,-0.16500000,-0.10250000
162641,-0.16950000,-0.15850000
162642,-0.18000000,-0.21100000
162643,-0.19050000,-0.24300000
162644,-0.20550000,-0.25250000
162645,-0.22300000,-0.22300000
162646,-0.24200000,-0.15400000
162647,-0.26350000,-0.07300000
162648,-0.28500000,-0.01050000
162649,-0.30650000,0.02200000
162650,-0.32750000,0.03100000
162651,-0.34900000,0.03300000
162652,-0.37050000,0.03500000
162653,-0.39000000,0.03600000
162654,-0.40900000,0.03450000
162655,-0.42600000,0.03500000
162656,-0.43600000,0.03600000
162657,-0.44900000,0.03950000
162658,-0.46150000,0.04000000
162659,-0.47050000,0.04000000
162660,-0.47650000,0.04300000
162661,-0.48550000,0.04350000
162662,-0.48750000,0.04250000
162663,-0.48750000,0.04700000
162664,-0.48750000,0.05300000
162665,-0.48100000,0.05450000
162666,-0.47450000,0.05150000
162667,-0.46400000,0.05200000
162668,-0.44650000,0.05150000
162669,-0.42100000,0.05350000
162670,-0.38650000,0.05350000
162671,-0.34350000,0.05450000
162672,-0.29200000,0.05450000
162673,-0.22750000,0.04750000
162674,-0.15650000,0.03550000
162675,-0.07700000,0.02700000
162676,0.00900000,0.02100000
162677,0.09250000,0.01450000
162678,0.17850000,0.01050000
162679,0.26000000,0.00900000
162680,0.33300000,0.01050000
162681,0.39750000,0.00900000
162682,0.44500000,0.00650000
162683,0.48150000,0.00850000
162684,0.50300000,0.01250000
162685,0.51150000,0.01650000
162686,0.50300000,0.02550000
162687,0.48150000,0.04150000
162688,0.44700000,0.06550000
162689,0.40000000,0.09250000
162690,0.34600000,0.11450000
162691,0.28400000,0.13200000
162692,0.21500000,0.13450000
162693,0.14000000,0.11900000
162694,0.07100000,0.09100000
162695,0.00000000,0.06450000
162696,-0.06200000,0.04500000
162697,-0.11600000,0.03050000
162698,-0.16100000,0.02050000
162699,-0.19300000,0.01250000
162700,-0.21450000,0.01050000
162701,-0.22300000,0.00900000
162702,-0.22300000,0.00650000
162703,-0.21900000,0.00700000
162704,-0.20400000,0.00650000
162705,-0.19100000,0.00350000
162706,-0.17150000,0.00100000
162707,-0.15650000,0.00150000
162708,-0.14350000,0.01200000
162709,-0.13500000,0.02200000
162710,-0.12850000,0.00500000
162711,-0.12450000,-0.04550000
162712,-0.12850000,-0.09900000
162713,-0.13750000,-0.14950000
162714,-0.14350000,-0.19550000
162715,-0.15900000,-0.22600000
162716,-0.17600000,-0.23300000
162717,-0.19750000,-0.19900000
162718,-0.21700000,-0.12400000
162719,-0.23850000,-0.04400000
162720,-0.25400000,0.00950000
162721,-0.27600000,0.03150000
162722,-0.30200000,0.03850000
162723,-0.32150000,0.04200000
162724,-0.34300000,0.04900000
162725,-0.36250000,0.05450000
162726,-0.38000000,0.05500000
162727,-0.39950000,0.05650000
162728,-0.41250000,0.05800000
162729,-0.42550000,0.05450000
162730,-0.43650000,0.05300000
162731,-0.44950000,0.05650000
162732,-0.45150000,0.05850000
162733,-0.45600000,0.05800000
162734,-0.46050000,0.05800000
162735,-0.46050000,0.05950000
162736,-0.45600000,0.06150000
162737,-0.45150000,0.06200000
162738,-0.44300000,0.06200000
162739,-0.43000000,0.06500000
162740,-0.41050000,0.06600000
162741,-0.38000000,0.06550000
162742,-0.34750000,0.06500000
162743,-0.30200000,0.06450000
162744,-0.24950000,0.06000000
162745,-0.18450000,0.05300000
162746,-0.11300000,0.04850000
162747,-0.03250000,0.04200000
162748,0.05200000,0.03250000
162749,0.13900000,0.02350000
162750,0.22350000,0.02150000
162751,0.30000000,0.02200000
162752,0.37350000,0.02150000
162753,0.43200000,0.01850000
162754,0.48200000,0.01800000
162755,0.51500000,0.02100000
162756,0.53450000,0.02350000
162757,0.53850000,0.02750000
162758,0.53000000,0.03750000
162759,0.50400000,0.05850000
162760,0.46700000,0.08500000
162761,0.41900000,0.11250000
162762,0.36050000,0.13750000
162763,0.29550000,0.14850000
162764,0.22350000,0.14050000
162765,0.15000000,0.12400000
162766,0.07400000,0.09950000
162767,0.00450000,0.07150000
162768,-0.05850000,0.04850000
162769,-0.11300000,0.03250000
162770,-0.15400000,0.02500000
162771,-0.18650000,0.02150000
162772,-0.20400000,0.01850000
162773,-0.21500000,0.01750000
162774,-0.21300000,0.01450000
162775,-0.20400000,0.01550000
162776,-0.18900000,0.01650000
162777,-0.17150000,0.01400000
162778,-0.15400000,0.01400000
162779,-0.13700000,0.01600000
162780,-0.12150000,0.02700000
162781,-0.11500000,0.03950000
162782,-0.10650000,0.01950000
162783,-0.10650000,-0.02950000
162784,-0.11800000,-0.08400000
162785,-0.12650000,-0.14100000
162786,-0.13750000,-0.18650000
162787,-0.15100000,-0.20750000
162788,-0.17050000,-0.20550000
162789,-0.18800000,-0.16200000
162790,-0.21000000,-0.08100000
162791,-0.23400000,-0.00150000
162792,-0.25600000,0.04800000
162793,-0.28200000,0.07150000
162794,-0.30400000,0.08250000
162795,-0.32800000,0.08900000
162796,-0.35000000,0.09450000
162797,-0.36950000,0.09500000
162798,-0.38700000,0.09850000
162799,-0.40450000,0.10150000
162800,-0.42000000,0.10200000
162801,-0.43300000,0.10200000
162802,-0.44150000,0.10200000
162803,-0.45050000,0.10350000
162804,-0.45700000,0.10600000
162805,-0.45900000,0.10900000
162806,-0.46150000,0.10950000
162807,-0.45900000,0.11250000
162808,-0.45900000,0.11900000
162809,-0.45250000,0.11750000
162810,-0.44400000,0.11300000
162811,-0.42850000,0.10950000
162812,-0.40650000,0.10700000
162813,-0.38050000,0.10250000
162814,-0.34350000,0.10150000
162815,-0.29750000,0.10150000
162816,-0.24050000,0.09650000
162817,-0.17500000,0.08750000
162818,-0.10050000,0.07850000
162819,-0.01500000,0.07100000
162820,0.07000000,0.06350000
162821,0.16000000,0.05600000
162822,0.24500000,0.04900000
162823,0.32600000,0.04150000
162824,0.39600000,0.03500000
162825,0.45500000,0.03600000
162826,0.50350000,0.04450000
162827,0.53600000,0.05100000
162828,0.55150000,0.05100000
162829,0.55600000,0.05300000
162830,0.54050000,0.06400000
162831,0.51650000,0.08850000
162832,0.47700000,0.12150000
162833,0.42650000,0.14750000
162834,0.36750000,0.16500000
162835,0.30400000,0.17500000
162836,0.23000000,0.16700000
162837,0.15550000,0.14400000
162838,0.08350000,0.11850000
162839,0.01550000,0.09300000
162840,-0.04600000,0.07500000
162841,-0.10050000,0.06850000
162842,-0.14200000,0.06200000
162843,-0.17250000,0.05350000
162844,-0.18800000,0.04550000
162845,-0.19650000,0.04350000
162846,-0.19450000,0.04400000
162847,-0.18350000,0.04400000
162848,-0.19200000,0.04400000
162849,-0.17400000,0.04400000
162850,-0.15650000,0.04500000
162851,-0.14100000,0.04900000
162852,-0.12550000,0.06500000
162853,-0.11900000,0.07250000
162854,-0.11250000,0.03950000
162855,-0.11450000,-0.02650000
162856,-0.11900000,-0.09800000
162857,-0.12800000,-0.16450000
162858,-0.13900000,-0.19900000
162859,-0.15000000,-0.20050000
162860,-0.16750000,-0.17400000
162861,-0.18950000,-0.10700000
162862,-0.20950000,-0.01850000
162863,-0.22700000,0.05100000
162864,-0.25150000,0.08900000
162865,-0.27350000,0.10850000
162866,-0.29550000,0.11800000
162867,-0.31750000,0.12400000
162868,-0.33700000,0.12750000
162869,-0.35500000,0.12600000
162870,-0.37450000,0.12450000
162871,-0.39250000,0.12750000
162872,-0.40750000,0.13050000
162873,-0.42100000,0.13000000
162874,-0.43650000,0.12400000
162875,-0.44500000,0.11850000
162876,-0.45200000,0.11900000
162877,-0.45850000,0.12050000
162878,-0.46050000,0.12200000
162879,-0.46050000,0.12850000
162880,-0.45600000,0.13150000
162881,-0.45200000,0.13150000
162882,-0.43850000,0.14450000
162883,-0.42100000,0.16900000
162884,-0.39650000,0.19450000
162885,-0.36350000,0.21550000
162886,-0.31950000,0.23450000
162887,-0.26900000,0.25500000
162888,-0.20300000,0.25800000
162889,-0.13000000,0.23150000
162890,-0.04650000,0.19350000
162891,0.04400000,0.15700000
162892,0.13650000,0.11500000
162893,0.22700000,0.07000000
162894,0.31500000,0.03850000
162895,0.39200000,0.02550000
162896,0.46250000,0.02200000
162897,0.51550000,0.02200000
162898,0.55950000,0.02200000
162899,0.58350000,0.02200000
162900,0.59450000,0.02200000
162901,0.58800000,0.02200000
162902,0.57050000,0.02200000
162903,0.53950000,0.02950000
162904,0.49350000,0.04600000
162905,0.44050000,0.04050000
162906,0.37900000,-0.01000000
162907,0.31250000,-0.07950000
162908,0.23800000,-0.14700000
162909,0.16500000,-0.19300000
162910,0.09450000,-0.20650000
162911,0.02650000,-0.19300000
162912,-0.03100000,-0.15650000
162913,-0.08400000,-0.08450000
162914,-0.12150000,-0.00900000
162915,-0.15000000,0.04400000
162916,-0.16550000,0.07050000
162917,-0.17000000,0.08250000
162918,-0.16550000,0.09250000
162919,-0.15450000,0.10350000
162920,-0.14350000,0.10950000
162921,-0.12800000,0.11200000
162922,-0.11450000,0.11450000
162923,-0.09950000,0.11300000
162924,-0.09500000,0.10950000
162925,-0.09050000,0.10850000
162926,-0.09250000,0.10550000
162927,-0.09500000,0.10250000
162928,-0.10350000,0.10150000
162929,-0.12150000,0.10200000
162930,-0.13450000,0.10350000
162931,-0.15200000,0.10950000
162932,-0.17400000,0.12000000
162933,-0.19200000,0.12950000
162934,-0.21400000,0.13250000
162935,-0.23350000,0.13500000
162936,-0.25150000,0.13450000
162937,-0.26900000,0.12950000
162938,-0.28650000,0.11650000
162939,-0.30000000,0.10200000
162940,-0.30650000,0.08550000
162941,-0.31100000,0.06500000
162942,-0.31100000,0.04950000
162943,-0.30650000,0.03950000
162944,-0.29550000,0.02900000
162945,-0.28200000,0.02200000
162946,-0.26450000,0.01650000
162947,-0.24450000,0.01250000
162948,-0.22950000,0.00850000
162949,-0.21150000,0.00650000
162950,-0.19850000,0.00700000
162951,-0.19200000,0.01000000
162952,-0.19400000,0.01100000
162953,-0.20300000,0.01100000
162954,-0.22050000,0.01550000
162955,-0.24900000,0.01850000
162956,-0.28200000,0.01800000
162957,-0.32200000,0.01800000
162958,-0.36800000,0.01800000
162959,-0.41450000,0.01800000
162960,-0.45600000,0.01750000
162961,-0.49800000,0.01450000
162962,-0.53550000,0.01400000
162963,-0.56650000,0.01400000
162964,-0.58850000,0.01400000
162965,-0.60400000,0.01350000
162966,-0.61250000,0.01050000
162967,-0.61500000,0.00700000
162968,-0.61050000,0.00650000
162969,-0.59950000,0.00700000
162970,-0.58400000,0.00700000
162971,-0.57300000,0.00850000
162972,-0.55300000,0.01000000
162973,-0.53550000,0.01100000
162974,-0.52000000,0.01250000
162975,-0.50450000,0.01450000
162976,-0.52250000,0.01750000
162977,-0.51150000,0.03100000
162978,-0.50450000,0.04900000
162979,-0.50050000,0.07400000
162980,-0.49800000,0.10100000
162981,-0.49800000,0.11200000
162982,-0.49800000,0.09700000
162983,-0.50450000,0.06650000
162984,-0.50900000,0.04000000
162985,-0.51550000,0.02350000
162986,-0.52250000,0.01150000
162987,-0.53100000,-0.00150000
162988,-0.53800000,-0.01600000
162989,-0.54650000,-0.03000000
162990,-0.55550000,-0.03650000
162991,-0.56400000,-0.03850000
162992,-0.57100000,-0.04050000
162993,-0.57750000,-0.04550000
162994,-0.58400000,-0.04950000
162995,-0.58850000,-0.04400000
162996,-0.59500000,-0.03250000
162997,-0.59700000,-0.02050000
162998,-0.60150000,-0.03700000
162999,-0.60150000,-0.09450000
163000,-0.60400000,-0.16350000
163001,-0.60150000,-0.22050000
163002,-0.59950000,-0.26800000
163003,-0.59700000,-0.30000000
163004,-0.59500000,-0.30350000
163005,-0.59050000,-0.25500000
163006,-0.58600000,-0.17250000
163007,-0.57950000,-0.08600000
163008,-0.57300000,-0.02400000
163009,-0.56650000,0.00300000
163010,-0.56000000,0.00950000
163011,-0.55300000,0.01400000
163012,-0.54650000,0.01750000
163013,-0.54200000,0.01800000
163014,-0.54000000,0.01950000
163015,-0.53550000,0.02200000
163016,-0.53100000,0.02450000
163017,-0.53100000,0.02200000
163018,-0.52900000,0.02150000
163019,-0.52650000,0.02200000
163020,-0.52650000,0.02000000
163021,-0.52450000,0.01750000
163022,-0.52000000,0.01600000
163023,-0.51150000,0.01500000
163024,-0.48950000,0.01450000
163025,-0.45400000,0.01400000
163026,-0.40100000,0.01550000
163027,-0.32400000,0.02000000
163028,-0.22050000,0.02150000
163029,-0.08850000,0.02200000
163030,0.06600000,0.02200000
163031,0.24450000,0.02200000
163032,0.43600000,0.02000000
163033,0.63000000,0.01600000
163034,0.82150000,0.01200000
163035,1.00200000,0.00650000
163036,1.02350000,0.00300000
163037,1.02350000,-0.00200000
163038,1.02350000,-0.00750000
163039,1.02350000,-0.01050000
163040,1.02350000,-0.01100000
163041,1.02350000,-0.01400000
163042,1.02350000,-0.00950000
163043,1.02350000,-0.00250000
163044,1.02350000,0.00100000
163045,1.02350000,-0.00050000
163046,1.02350000,-0.00150000
163047,1.02350000,0.00000000
163048,1.02350000,0.00000000
163049,1.02350000,0.00000000
163050,1.02350000,0.00150000
163051,1.02350000,0.00450000
163052,1.02200000,0.00950000
163053,0.92950000,0.01950000
163054,0.83900000,0.03550000
163055,0.75550000,0.05450000
163056,0.68300000,0.07750000
163057,0.61900000,0.09500000
163058,0.56800000,0.09150000
163059,0.53100000,0.07250000
163060,0.50000000,0.04750000
163061,0.47800000,0.02350000
163062,0.46050000,0.00800000
163063,0.44700000,-0.00150000
163064,0.43800000,-0.01050000
163065,0.42700000,-0.02050000
163066,0.41400000,-0.02400000
163067,0.39850000,-0.02350000
163068,0.37850000,-0.02650000
163069,0.35650000,-0.03050000
163070,0.33250000,-0.03500000
163071,0.30400000,-0.03650000
163072,0.27100000,-0.03550000
163073,0.23750000,-0.03450000
163074,0.20450000,-0.02200000
163075,0.16950000,-0.01950000
163076,0.13200000,-0.06000000
163077,0.09650000,-0.11950000
163078,0.05950000,-0.17650000
163079,0.02400000,-0.22550000
163080,-0.01350000,-0.25950000
163081,-0.04850000,-0.27150000
163082,-0.07950000,-0.24950000
163083,-0.11500000,-0.19050000
163084,-0.14550000,-0.11300000
163085,-0.17650000,-0.04400000
163086,-0.20300000,-0.00300000
163087,-0.23150000,0.01200000
163088,-0.25800000,0.01950000
163089,-0.28650000,0.02200000
163090,-0.31100000,0.02200000
163091,-0.33500000,0.02200000
163092,-0.36150000,0.02200000
163093,-0.38550000,0.02200000
163094,-0.40550000,0.02200000
163095,-0.43000000,0.02200000
163096,-0.45200000,0.02200000
163097,-0.47400000,0.02200000
163098,-0.49350000,0.02200000
163099,-0.50900000,0.02200000
163100,-0.52650000,0.02200000
163101,-0.54000000,0.02200000
163102,-0.55550000,0.02200000
163103,-0.56200000,0.02200000
163104,-0.69850000,0.02550000
163105,-0.70300000,0.02800000
163106,-0.69850000,0.02900000
163107,-0.68750000,0.03200000
163108,-0.66800000,0.03050000
163109,-0.64150000,0.02550000
163110,-0.60600000,0.02300000
163111,-0.55550000,0.02150000
163112,-0.49600000,0.01600000
163113,-0.43000000,0.00650000
163114,-0.35700000,0.00350000
163115,-0.27800000,0.00250000
163116,-0.20500000,-0.00200000
163117,-0.13250000,-0.00700000
163118,-0.06400000,-0.00700000
163119,-0.00900000,-0.00400000
163120,0.03500000,-0.00400000
163121,0.06800000,-0.00650000
163122,0.08350000,-0.00450000
163123,0.08550000,-0.00050000
163124,0.07250000,0.00000000
163125,0.04400000,-0.00150000
163126,0.00650000,-0.00100000
163127,-0.04450000,0.00700000
163128,-0.10600000,0.02150000
163129,-0.17200000,0.04100000
163130,-0.24250000,0.06500000
163131,-0.31750000,0.08850000
163132,-0.39000000,0.10450000
163133,-0.45650000,0.10750000
163134,-0.51800000,0.09400000
163135,-0.56850000,0.06850000
163136,-0.61050000,0.04200000
163137,-0.63700000,0.02400000
163138,-0.65450000,0.01450000
163139,-0.65900000,0.00500000
163140,-0.65650000,-0.00250000
163141,-0.64800000,-0.01050000
163142,-0.63450000,-0.01600000
163143,-0.61700000,-0.02050000
163144,-0.59750000,-0.02350000
163145,-0.58200000,-0.02800000
163146,-0.56650000,-0.03150000
163147,-0.55550000,-0.03300000
163148,-0.54900000,-0.02600000
163149,-0.54650000,-0.01250000
163150,-0.54650000,-0.00250000
163151,-0.55100000,-0.02750000
163152,-0.56000000,-0.08500000
163153,-0.57300000,-0.13900000
163154,-0.58850000,-0.18850000
163155,-0.60600000,-0.23200000
163156,-0.62350000,-0.25850000
163157,-0.64350000,-0.25600000
163158,-0.66350000,-0.20700000
163159,-0.68100000,-0.12500000
163160,-0.69850000,-0.04800000
163161,-0.71850000,-0.00300000
163162,-0.73600000,0.01400000
163163,-0.74950000,0.02000000
163164,-0.76700000,0.02150000
163165,-0.78000000,0.02200000
163166,-0.79350000,0.02500000
163167,-0.80450000,0.02550000
163168,-0.81550000,0.02800000
163169,-0.82200000,0.02850000
163170,-0.83100000,0.02600000
163171,-0.83500000,0.02850000
163172,-0.83950000,0.03200000
163173,-0.84400000,0.03250000
163174,-0.84600000,0.03200000
163175,-0.84850000,0.03250000
163176,-0.84600000,0.03200000
163177,-0.84400000,0.02950000
163178,-0.83950000,0.02900000
163179,-0.82850000,0.03250000
163180,-0.81550000,0.03400000
163181,-0.79750000,0.03050000
163182,-0.76900000,0.03200000
163183,-0.73400000,0.03250000
163184,-0.68550000,0.03200000
163185,-0.62800000,0.02950000
163186,-0.56000000,0.02550000
163187,-0.48050000,0.02150000
163188,-0.39250000,0.01650000
163189,-0.30000000,0.00850000
163190,-0.20500000,0.00150000
163191,-0.11050000,-0.00050000
163192,-0.01800000,0.00150000
163193,0.06150000,0.00300000
163194,0.13200000,0.00100000
163195,0.18700000,0.00000000
163196,0.22900000,0.00300000
163197,0.25300000,0.00650000
163198,0.26400000,0.00750000
163199,0.26200000,0.01050000
163200,0.24200000,0.01250000
163201,0.20900000,0.01550000
163202,0.16300000,0.02900000
163203,0.10750000,0.05300000
163204,0.04400000,0.07650000
163205,-0.02650000,0.09600000
163206,-0.10150000,0.11550000
163207,-0.17850000,0.12150000
163208,-0.25150000,0.10400000
163209,-0.31950000,0.07400000
163210,-0.38150000,0.04550000
163211,-0.42750000,0.02600000
163212,-0.46750000,0.01600000
163213,-0.48950000,0.00700000
163214,-0.50050000,-0.00200000
163215,-0.50250000,-0.00500000
163216,-0.49600000,-0.00450000
163217,-0.48050000,-0.00400000
163218,-0.46050000,-0.00400000
163219,-0.43850000,-0.00400000
163220,-0.41900000,-0.00400000
163221,-0.39900000,-0.00900000
163222,-0.38350000,-0.01350000
163223,-0.37450000,-0.00450000
163224,-0.36600000,0.00550000
163225,-0.36600000,-0.01200000
163226,-0.36800000,-0.06450000
163227,-0.37700000,-0.12250000
163228,-0.39250000,-0.17900000
163229,-0.40550000,-0.22300000
163230,-0.42300000,-0.24900000
163231,-0.44750000,-0.25400000
163232,-0.46950000,-0.20900000
163233,-0.49150000,-0.12650000
163234,-0.51800000,-0.04750000
163235,-0.54000000,0.00350000
163236,-0.56400000,0.02450000
163237,-0.58600000,0.02950000
163238,-0.60600000,0.02900000
163239,-0.62600000,0.02900000
163240,-0.64150000,0.03200000
163241,-0.66100000,0.03450000
163242,-0.67450000,0.04100000
163243,-0.68750000,0.04400000
163244,-0.70100000,0.04500000
163245,-0.70950000,0.04150000
163246,-0.71600000,0.03800000
163247,-0.72500000,0.03700000
163248,-0.72950000,0.03300000
163249,-0.72950000,0.03050000
163250,-0.73150000,0.03350000
163251,-0.72950000,0.03950000
163252,-0.72500000,0.04600000
163253,-0.71850000,0.04500000
163254,-0.70750000,0.04150000
163255,-0.69000000,0.04200000
163256,-0.66800000,0.04350000
163257,-0.63700000,0.04050000
163258,-0.59750000,0.03600000
163259,-0.54900000,0.03250000
163260,-0.48700000,0.03000000
163261,-0.41450000,0.02400000
163262,-0.33750000,0.01750000
163263,-0.25350000,0.01300000
163264,-0.16550000,0.00850000
163265,-0.07500000,0.00300000
163266,0.00850000,0.00000000
163267,0.08550000,-0.00100000
163268,0.15400000,-0.00050000
163269,0.21150000,0.00000000
163270,0.25100000,0.00100000
163271,0.27750000,0.00150000
163272,0.29050000,0.00450000
163273,0.28600000,0.01050000
163274,0.26650000,0.01300000
163275,0.23750000,0.02400000
163276,0.19350000,0.04500000
163277,0.13650000,0.06850000
163278,0.07450000,0.09100000
163279,0.00400000,0.11050000
163280,-0.06850000,0.12250000
163281,-0.14550000,0.11000000
163282,-0.21600000,0.08350000
163283,-0.28650000,0.06000000
163284,-0.34600000,0.03800000
163285,-0.39250000,0.02000000
163286,-0.43000000,0.01200000
163287,-0.45850000,0.00500000
163288,-0.46950000,0.00100000
163289,-0.47150000,-0.00250000
163290,-0.46500000,-0.00700000
163291,-0.44750000,-0.00600000
163292,-0.43000000,-0.00400000
163293,-0.41000000,-0.00400000
163294,-0.38800000,-0.00200000
163295,-0.37050000,0.00150000
163296,-0.28450000,0.01000000
163297,-0.27350000,0.02100000
163298,-0.26700000,0.01700000
163299,-0.26450000,-0.02100000
163300,-0.26900000,-0.07950000
163301,-0.28000000,-0.13650000
163302,-0.29100000,-0.18900000
163303,-0.30850000,-0.21900000
163304,-0.32850000,-0.22600000
163305,-0.34600000,-0.20500000
163306,-0.36800000,-0.13350000
163307,-0.39250000,-0.04250000
163308,-0.41200000,0.02200000
163309,-0.43400000,0.05050000
163310,-0.45650000,0.05850000
163311,-0.48050000,0.06150000
163312,-0.50050000,0.06500000
163313,-0.52000000,0.06550000
163314,-0.53550000,0.06800000
163315,-0.55550000,0.06900000
163316,-0.56850000,0.06550000
163317,-0.58200000,0.06500000
163318,-0.59300000,0.06800000
163319,-0.60150000,0.06950000
163320,-0.61050000,0.06900000
163321,-0.61500000,0.06900000
163322,-0.61700000,0.07250000
163323,-0.62150000,0.07600000
163324,-0.61700000,0.07650000
163325,-0.61500000,0.07600000
163326,-0.60850000,0.07700000
163327,-0.59750000,0.08000000
163328,-0.58200000,0.08250000
163329,-0.56200000,0.08000000
163330,-0.53550000,0.07650000
163331,-0.49600000,0.07600000
163332,-0.44950000,0.07450000
163333,-0.39250000,0.06700000
163334,-0.32400000,0.05800000
163335,-0.24500000,0.04700000
163336,-0.16100000,0.03600000
163337,-0.07050000,0.03000000
163338,0.01950000,0.02550000
163339,0.10750000,0.02450000
163340,0.19350000,0.02350000
163341,0.26400000,0.02250000
163342,0.32600000,0.02200000
163343,0.37200000,0.02350000
163344,0.40750000,0.02550000
163345,0.42300000,0.02500000
163346,0.42300000,0.02500000
163347,0.41200000,0.03200000
163348,0.38750000,0.05000000
163349,0.34800000,0.07400000
163350,0.29700000,0.09900000
163351,0.24000000,0.12650000
163352,0.17150000,0.14500000
163353,0.10100000,0.14200000
163354,0.02600000,0.12250000
163355,-0.05100000,0.09850000
163356,-0.12150000,0.07400000
163357,-0.18550000,0.05450000
163358,-0.24050000,0.03700000
163359,-0.28650000,0.02750000
163360,-0.31500000,0.02300000
163361,-0.33700000,0.01850000
163362,-0.34800000,0.01800000
163363,-0.34350000,0.02100000
163364,-0.33500000,0.02200000
163365,-0.31950000,0.02150000
163366,-0.29950000,0.01850000
163367,-0.27750000,0.01750000
163368,-0.26200000,0.01800000
163369,-0.24450000,0.02550000
163370,-0.23350000,0.03850000
163371,-0.22700000,0.01800000
163372,-0.22250000,-0.04450000
163373,-0.22450000,-0.11700000
163374,-0.23100000,-0.18250000
163375,-0.24250000,-0.22400000
163376,-0.25550000,-0.23400000
163377,-0.27300000,-0.22450000
163378,-0.29050000,-0.17050000
163379,-0.31300000,-0.08250000
163380,-0.33500000,-0.00700000
163381,-0.35700000,0.03350000
163382,-0.37900000,0.05400000
163383,-0.40300000,0.06300000
163384,-0.42300000,0.06550000
163385,-0.44500000,0.06800000
163386,-0.46500000,0.06950000
163387,-0.48450000,0.07200000
163388,-0.50200000,0.07400000
163389,-0.51750000,0.07350000
163390,-0.53300000,0.07300000
163391,-0.54650000,0.07750000
163392,-0.55750000,0.07950000
163393,-0.56600000,0.07650000
163394,-0.57500000,0.07450000
163395,-0.57950000,0.07850000
163396,-0.58150000,0.07950000
163397,-0.58150000,0.07650000
163398,-0.57950000,0.07650000
163399,-0.57250000,0.07950000
163400,-0.55750000,0.08000000
163401,-0.54200000,0.07950000
163402,-0.51550000,0.07650000
163403,-0.48250000,0.07300000
163404,-0.44250000,0.07050000
163405,-0.38550000,0.06350000
163406,-0.31950000,0.05400000
163407,-0.24650000,0.04400000
163408,-0.16500000,0.03400000
163409,-0.07500000,0.02550000
163410,0.01350000,0.02200000
163411,0.10350000,0.02200000
163412,0.18750000,0.02000000
163413,0.26000000,0.01450000
163414,0.32400000,0.01400000
163415,0.37450000,0.01400000
163416,0.40750000,0.01400000
163417,0.42750000,0.01750000
163418,0.43200000,0.02000000
163419,0.42100000,0.02700000
163420,0.39650000,0.04100000
163421,0.36150000,0.06200000
163422,0.31500000,0.08350000
163423,0.26000000,0.10850000
163424,0.19600000,0.13400000
163425,0.12350000,0.13450000
163426,0.05100000,0.11500000
163427,-0.02400000,0.09250000
163428,-0.09700000,0.06600000
163429,-0.16050000,0.03900000
163430,-0.22000000,0.02100000
163431,-0.26650000,0.00900000
163432,-0.30400000,0.00100000
163433,-0.32800000,-0.01050000
163434,-0.34150000,-0.01850000
163435,-0.34150000,-0.01850000
163436,-0.33700000,-0.01400000
163437,-0.32600000,-0.01450000
163438,-0.30850000,-0.01950000
163439,-0.29050000,-0.02200000
163440,-0.27550000,-0.01650000
163441,-0.26000000,-0.00550000
163442,-0.25100000,0.00700000
163443,-0.24450000,-0.01000000
163444,-0.24450000,-0.07050000
163445,-0.24650000,-0.14550000
163446,-0.25550000,-0.21450000
163447,-0.26450000,-0.26150000
163448,-0.27950000,-0.27950000
163449,-0.29950000,-0.27450000
163450,-0.31500000,-0.22750000
163451,-0.33900000,-0.14300000
163452,-0.36100000,-0.06100000
163453,-0.38350000,-0.00950000
163454,-0.40550000,0.01350000
163455,-0.42950000,0.02050000
163456,-0.45150000,0.02500000
163457,-0.47350000,0.02500000
163458,-0.49350000,0.02500000
163459,-0.51300000,0.02500000
163460,-0.53100000,0.02500000
163461,-0.55050000,0.02500000
163462,-0.56400000,0.02350000
163463,-0.57950000,0.02350000
163464,-0.59250000,0.02200000
163465,-0.60350000,0.02150000
163466,-0.61250000,0.02000000
163467,-0.61700000,0.02150000
163468,-0.62350000,0.02350000
163469,-0.62350000,0.02550000
163470,-0.62350000,0.02500000
163471,-0.61900000,0.02500000
163472,-0.60800000,0.02800000
163473,-0.59050000,0.02700000
163474,-0.56600000,0.02500000
163475,-0.53550000,0.02500000
163476,-0.49100000,0.02450000
163477,-0.43850000,0.02000000
163478,-0.37450000,0.01400000
163479,-0.30600000,0.00850000
163480,-0.22000000,0.00250000
163481,-0.13200000,-0.00650000
163482,-0.04400000,-0.01800000
163483,0.04650000,-0.02550000
163484,0.13000000,-0.02800000
163485,0.20300000,-0.03300000
163486,0.26650000,-0.03300000
163487,0.31950000,-0.03100000
163488,0.47650000,-0.02900000
163489,0.50050000,-0.02600000
163490,0.50700000,-0.02400000
163491,0.49600000,-0.02500000
163492,0.47650000,-0.01450000
163493,0.44450000,0.00750000
163494,0.39700000,0.02700000
163495,0.34350000,0.04600000
163496,0.28100000,0.07050000
163497,0.21450000,0.08400000
163498,0.13950000,0.07600000
163499,0.06850000,0.05650000
163500,-0.00450000,0.03400000
163501,-0.06700000,0.00900000
163502,-0.12500000,-0.01200000
163503,-0.17400000,-0.02600000
163504,-0.21300000,-0.03500000
163505,-0.23650000,-0.04000000
163506,-0.25350000,-0.04200000
163507,-0.25600000,-0.04750000
163508,-0.25350000,-0.04600000
163509,-0.24300000,-0.04750000
163510,-0.22800000,-0.05100000
163511,-0.21100000,-0.05300000
163512,-0.19150000,-0.05450000
163513,-0.17850000,-0.05450000
163514,-0.16550000,-0.04300000
163515,-0.16150000,-0.02750000
163516,-0.15500000,-0.05350000
163517,-0.15500000,-0.11900000
163518,-0.16150000,-0.18300000
163519,-0.17000000,-0.23800000
163520,-0.18050000,-0.27550000
163521,-0.19800000,-0.28600000
163522,-0.21100000,-0.26300000
163523,-0.23200000,-0.20400000
163524,-0.24950000,-0.12450000
163525,-0.27300000,-0.05300000
163526,-0.29250000,-0.00800000
163527,-0.31400000,0.01150000
163528,-0.33550000,0.01950000
163529,-0.35700000,0.02200000
163530,-0.37850000,0.02200000
163531,-0.39550000,0.02200000
163532,-0.41500000,0.02500000
163533,-0.43400000,0.02500000
163534,-0.44900000,0.02650000
163535,-0.46450000,0.02850000
163536,-0.47500000,0.02850000
163537,-0.48800000,0.02550000
163538,-0.49450000,0.02500000
163539,-0.50100000,0.02650000
163540,-0.50500000,0.02850000
163541,-0.50500000,0.02900000
163542,-0.50500000,0.03050000
163543,-0.50100000,0.03550000
163544,-0.49000000,0.03650000
163545,-0.47700000,0.03250000
163546,-0.45550000,0.03200000
163547,-0.43000000,0.03200000
163548,-0.39350000,0.02850000
163549,-0.34850000,0.02550000
163550,-0.29250000,0.02200000
163551,-0.22800000,0.02150000
163552,-0.18150000,0.01650000
163553,-0.09950000,0.00850000
163554,-0.01100000,0.00150000
163555,0.07950000,-0.00350000
163556,0.16550000,-0.00750000
163557,0.24750000,-0.00550000
163558,0.32250000,-0.00250000
163559,0.38450000,-0.00300000
163560,0.43300000,-0.00400000
163561,0.46650000,-0.00400000
163562,0.48650000,-0.00350000
163563,0.48850000,-0.00050000
163564,0.48200000,0.00500000
163565,0.45750000,0.01800000
163566,0.42000000,0.03900000
163567,0.37350000,0.06050000
163568,0.31600000,0.08450000
163569,0.25200000,0.10150000
163570,0.17900000,0.10350000
163571,0.10600000,0.09100000
163572,0.03500000,0.06950000
163573,-0.03550000,0.04200000
163574,-0.09950000,0.01750000
163575,-0.15950000,0.00350000
163576,-0.20350000,-0.00750000
163577,-0.23650000,-0.02200000
163578,-0.25900000,-0.03250000
163579,-0.26750000,-0.03150000
163580,-0.26750000,-0.02950000
163581,-0.26100000,-0.03300000
163582,-0.24800000,-0.03300000
163583,-0.23250000,-0.03100000
163584,-0.21250000,-0.02800000
163585,-0.19450000,-0.02900000
163586,-0.18150000,-0.02550000
163587,-0.17250000,-0.00750000
163588,-0.16600000,-0.01050000
163589,-0.16400000,-0.05700000
163590,-0.16400000,-0.11600000
163591,-0.17050000,-0.16950000
163592,-0.17700000,-0.21450000
163593,-0.19250000,-0.24850000
163594,-0.21000000,-0.26400000
163595,-0.22550000,-0.23600000
163596,-0.24550000,-0.16400000
163597,-0.26750000,-0.08400000
163598,-0.28750000,-0.02250000
163599,-0.31400000,0.00900000
163600,-0.33200000,0.02050000
163601,-0.35600000,0.02600000
163602,-0.38050000,0.02750000
163603,-0.39800000,0.02850000
163604,-0.42000000,0.02900000
163605,-0.44000000,0.02900000
163606,-0.45350000,0.03200000
163607,-0.47100000,0.03300000
163608,-0.48450000,0.03450000
163609,-0.49300000,0.03250000
163610,-0.50200000,0.03200000
163611,-0.50850000,0.03400000
163612,-0.51300000,0.03550000
163613,-0.51550000,0.03600000
163614,-0.51750000,0.03600000
163615,-0.51100000,0.03950000
163616,-0.50900000,0.04000000
163617,-0.49800000,0.04000000
163618,-0.48050000,0.04150000
163619,-0.45850000,0.04500000
163620,-0.43000000,0.04350000
163621,-0.39000000,0.03850000
163622,-0.34150000,0.03400000
163623,-0.28450000,0.03000000
163624,-0.21400000,0.02350000
163625,-0.13900000,0.01600000
163626,-0.05300000,0.01050000
163627,0.03500000,0.00850000
163628,0.12100000,0.00300000
163629,0.20700000,-0.00050000
163630,0.28600000,-0.00300000
163631,0.35450000,-0.00400000
163632,0.41400000,-0.00400000
163633,0.45600000,-0.00400000
163634,0.48450000,-0.00200000
163635,0.50000000,0.00000000
163636,0.50000000,0.00300000
163637,0.48450000,0.01050000
163638,0.45800000,0.02750000
163639,0.41850000,0.04800000
163640,0.36550000,0.06700000
163641,0.30400000,0.08500000
163642,0.23800000,0.10100000
163643,0.16300000,0.10400000
163644,0.08800000,0.09000000
163645,0.01550000,0.06450000
163646,-0.05100000,0.03900000
163647,-0.11450000,0.02100000
163648,-0.16550000,0.00900000
163649,-0.20500000,0.00000000
163650,-0.23600000,-0.00950000
163651,-0.25550000,-0.01750000
163652,-0.26000000,-0.01750000
163653,-0.25800000,-0.01700000
163654,-0.24700000,-0.01800000
163655,-0.23150000,-0.01700000
163656,-0.21600000,-0.01650000
163657,-0.19600000,-0.02050000
163658,-0.17850000,-0.01950000
163659,-0.16550000,-0.00550000
163660,-0.15200000,0.00850000
163661,-0.14800000,-0.01300000
163662,-0.14800000,-0.07150000
163663,-0.15000000,-0.12450000
163664,-0.15650000,-0.17500000
163665,-0.16750000,-0.22400000
163666,-0.18300000,-0.25450000
163667,-0.20050000,-0.25250000
163668,-0.21850000,-0.20200000
163669,-0.24050000,-0.12050000
163670,-0.26250000,-0.04450000
163671,-0.28650000,0.00600000
163672,-0.30850000,0.02600000
163673,-0.33050000,0.02900000
163674,-0.35500000,0.02900000
163675,-0.37450000,0.02900000
163676,-0.39450000,0.03200000
163677,-0.41450000,0.03250000
163678,-0.43200000,0.03250000
163679,-0.44500000,0.03550000
163680,-0.45500000,0.03600000
163681,-0.46800000,0.03550000
163682,-0.47700000,0.03450000
163683,-0.48350000,0.03600000
163684,-0.49050000,0.03950000
163685,-0.49250000,0.04000000
163686,-0.49250000,0.04000000
163687,-0.49050000,0.04000000
163688,-0.48600000,0.04500000
163689,-0.47900000,0.05300000
163690,-0.46600000,0.05650000
163691,-0.44600000,0.05450000
163692,-0.42150000,0.05450000
163693,-0.38600000,0.05100000
163694,-0.34150000,0.04700000
163695,-0.28600000,0.04200000
163696,-0.22600000,0.03750000
163697,-0.15300000,0.03100000
163698,-0.06850000,0.02550000
163699,0.01350000,0.02150000
163700,0.10450000,0.01800000
163701,0.19100000,0.01400000
163702,0.27300000,0.01050000
163703,0.34600000,0.01250000
163704,0.41300000,0.01400000
163705,0.46150000,0.01050000
163706,0.50150000,0.01250000
163707,0.52600000,0.01450000
163708,0.53500000,0.01400000
163709,0.52800000,0.01600000
163710,0.50800000,0.02700000
163711,0.47500000,0.04700000
163712,0.42600000,0.07200000
163713,0.37050000,0.09500000
163714,0.30650000,0.12100000
163715,0.23300000,0.13400000
163716,0.15750000,0.12400000
163717,0.08000000,0.10000000
163718,0.00650000,0.06800000
163719,-0.06000000,0.03850000
163720,-0.11750000,0.02400000
163721,-0.16850000,0.01600000
163722,-0.20400000,0.00850000
163723,-0.22850000,0.00100000
163724,-0.24200000,-0.00700000
163725,-0.24200000,-0.00950000
163726,-0.23500000,-0.00950000
163727,-0.21950000,-0.00900000
163728,-0.20400000,-0.00900000
163729,-0.18200000,-0.01250000
163730,-0.16400000,-0.01400000
163731,-0.14650000,-0.00500000
163732,-0.13550000,0.00600000
163733,-0.12400000,0.00500000
163734,-0.11950000,-0.03000000
163735,-0.11950000,-0.08200000
163736,-0.12650000,-0.13700000
163737,-0.13750000,-0.18900000
163738,-0.15100000,-0.22750000
163739,-0.16650000,-0.24450000
163740,-0.18400000,-0.22900000
163741,-0.20650000,-0.16900000
163742,-0.23050000,-0.08300000
163743,-0.25500000,-0.01250000
163744,-0.27650000,0.02150000
163745,-0.30100000,0.03000000
163746,-0.32300000,0.03450000
163747,-0.34700000,0.03800000
163748,-0.36500000,0.04150000
163749,-0.38700000,0.04400000
163750,-0.40700000,0.04650000
163751,-0.42250000,0.04850000
163752,-0.43550000,0.05250000
163753,-0.45100000,0.05100000
163754,-0.46200000,0.04950000
163755,-0.47100000,0.05400000
163756,-0.47550000,0.05650000
163757,-0.48200000,0.05750000
163758,-0.48200000,0.06100000
163759,-0.48200000,0.06200000
163760,-0.48000000,0.06200000
163761,-0.47100000,0.06500000
163762,-0.46200000,0.06500000
163763,-0.44650000,0.06500000
163764,-0.42700000,0.06800000
163765,-0.39600000,0.06750000
163766,-0.35800000,0.06500000
163767,-0.30750000,0.06250000
163768,-0.25000000,0.05150000
163769,-0.18350000,0.04000000
163770,-0.10400000,0.03800000
163771,-0.02000000,0.03450000
163772,0.06850000,0.02700000
163773,0.15900000,0.02000000
163774,0.24300000,0.01750000
163775,0.32250000,0.01800000
163776,0.39150000,0.01800000
163777,0.45550000,0.01650000
163778,0.49950000,0.01750000
163779,0.53050000,0.01950000
163780,0.55050000,0.02200000
163781,0.55050000,0.02550000
163782,0.54150000,0.03350000
163783,0.51500000,0.05450000
163784,0.47300000,0.07950000
163785,0.42450000,0.10050000
163786,0.36450000,0.12300000
163787,0.29600000,0.14150000
163788,0.22100000,0.14250000
163789,0.14600000,0.12350000
163790,0.07300000,0.09400000
163791,0.00000000,0.06550000
163792,-0.06200000,0.04500000
163793,-0.11700000,0.02950000
163794,-0.15950000,0.02000000
163795,-0.19000000,0.01400000
163796,-0.21250000,0.00900000
163797,-0.21900000,0.00800000
163798,-0.21650000,0.01050000
163799,-0.21000000,0.01100000
163800,-0.19450000,0.01100000
163801,-0.17900000,0.00900000
163802,-0.15950000,0.00700000
163803,-0.14400000,0.01250000
163804,-0.12600000,0.02500000
163805,-0.11500000,0.03600000
163806,-0.11300000,0.01850000
163807,-0.11050000,-0.03300000
163808,-0.12150000,-0.09100000
163809,-0.12800000,-0.14850000
163810,-0.14100000,-0.19150000
163811,-0.15650000,-0.20650000
163812,-0.17200000,-0.20500000
163813,-0.18950000,-0.16400000
163814,-0.21150000,-0.08250000
163815,-0.23600000,-0.00050000
163816,-0.25800000,0.04800000
163817,-0.28000000,0.06700000
163818,-0.30400000,0.07550000
163819,-0.32600000,0.07800000
163820,-0.34850000,0.08350000
163821,-0.36800000,0.08900000
163822,-0.38550000,0.08750000
163823,-0.40350000,0.08500000
163824,-0.41900000,0.08850000
163825,-0.43650000,0.09250000
163826,-0.44750000,0.09100000
163827,-0.45850000,0.08950000
163828,-0.46700000,0.09400000
163829,-0.47150000,0.10000000
163830,-0.47600000,0.10200000
163831,-0.48050000,0.10350000
163832,-0.47800000,0.10750000
163833,-0.47600000,0.10950000
163834,-0.46500000,0.11450000
163835,-0.45400000,0.12500000
163836,-0.43650000,0.13050000
163837,-0.40750000,0.12750000
163838,-0.37450000,0.12400000
163839,-0.32850000,0.12050000
163840,-0.27550000,0.11850000
163841,-0.20950000,0.11300000
163842,-0.13250000,0.10350000
163843,-0.05100000,0.09250000
163844,0.03750000,0.08100000
163845,0.13000000,0.07050000
163846,0.22000000,0.06700000
163847,0.30600000,0.06550000
163848,0.37900000,0.06350000
163849,0.44700000,0.06500000
163850,0.50000000,0.06550000
163851,0.54200000,0.06850000
163852,0.56400000,0.07300000
163853,0.57250000,0.07600000
163854,0.56800000,0.08100000
163855,0.54600000,0.10500000
163856,0.51100000,0.13200000
163857,0.46450000,0.15150000
163858,0.40950000,0.17100000
163859,0.34550000,0.18100000
163860,0.27300000,0.17100000
163861,0.20050000,0.14500000
163862,0.12300000,0.11400000
163863,0.05050000,0.08600000
163864,-0.02200000,0.06550000
163865,-0.07950000,0.05100000
163866,-0.13000000,0.03650000
163867,-0.16750000,0.02900000
163868,-0.19400000,0.02700000
163869,-0.20750000,0.02550000
163870,-0.20950000,0.02300000
163871,-0.20500000,0.02200000
163872,-0.21200000,0.02000000
163873,-0.19650000,0.01750000
163874,-0.17900000,0.01800000
163875,-0.16150000,0.02350000
163876,-0.14400000,0.04050000
163877,-0.13100000,0.04800000
163878,-0.12450000,0.01550000
163879,-0.12000000,-0.04850000
163880,-0.12000000,-0.12150000
163881,-0.12650000,-0.18600000
163882,-0.13550000,-0.22300000
163883,-0.14850000,-0.22950000
163884,-0.16400000,-0.20500000
163885,-0.18150000,-0.13950000
163886,-0.20350000,-0.05200000
163887,-0.22300000,0.01500000
163888,-0.24500000,0.05200000
163889,-0.26900000,0.07150000
163890,-0.29100000,0.07850000
163891,-0.31250000,0.08550000
163892,-0.33450000,0.09250000
163893,-0.35850000,0.09500000
163894,-0.37850000,0.09450000
163895,-0.39800000,0.09350000
163896,-0.41750000,0.09600000
163897,-0.43300000,0.09500000
163898,-0.44850000,0.09200000
163899,-0.46150000,0.09600000
163900,-0.47000000,0.10200000
163901,-0.47450000,0.10150000
163902,-0.47900000,0.10050000
163903,-0.48350000,0.10550000
163904,-0.48100000,0.11000000
163905,-0.47450000,0.11200000
163906,-0.46800000,0.11350000
163907,-0.45050000,0.11300000
163908,-0.43100000,0.11100000
163909,-0.40000000,0.10850000
163910,-0.36100000,0.10550000
163911,-0.31050000,0.10050000
163912,-0.24900000,0.09100000
163913,-0.17900000,0.07950000
163914,-0.09850000,0.06850000
163915,-0.01100000,0.05950000
163916,0.07900000,0.05050000
163917,0.17100000,0.04250000
163918,0.26050000,0.03450000
163919,0.34350000,0.03200000
163920,0.41600000,0.03450000
163921,0.47500000,0.03600000
163922,0.52100000,0.03450000
163923,0.55350000,0.03700000
163924,0.56900000,0.04550000
163925,0.56900000,0.04900000
163926,0.55350000,0.05850000
163927,0.52500000,0.07950000
163928,0.48600000,0.10700000
163929,0.43100000,0.12700000
163930,0.37000000,0.14150000
163931,0.30000000,0.14900000
163932,0.22550000,0.14350000
163933,0.14900000,0.12350000
163934,0.07250000,0.09200000
163935,0.00000000,0.06450000
163936,-0.06550000,0.04350000
163937,-0.12250000,0.02600000
163938,-0.16600000,0.01600000
163939,-0.20100000,0.01050000
163940,-0.22100000,0.00500000
163941,-0.22950000,0.00000000
163942,-0.23150000,0.00000000
163943,-0.22750000,0.00000000
163944,-0.21650000,-0.00100000
163945,-0.19900000,-0.00200000
163946,-0.18350000,-0.00350000
163947,-0.17050000,0.00000000
163948,-0.15500000,0.01350000
163949,-0.14650000,0.01600000
163950,-0.14650000,-0.02200000
163951,-0.14650000,-0.09200000
163952,-0.14850000,-0.16550000
163953,-0.15750000,-0.22350000
163954,-0.17250000,-0.25150000
163955,-0.18600000,-0.25850000
163956,-0.20350000,-0.24000000
163957,-0.22500000,-0.17450000
163958,-0.24700000,-0.08800000
163959,-0.27100000,-0.01850000
163960,-0.29300000,0.01850000
163961,-0.31900000,0.03000000
163962,-0.34350000,0.03650000
163963,-0.36500000,0.04800000
163964,-0.38500000,0.05150000
163965,-0.40650000,0.05100000
163966,-0.42850000,0.05250000
163967,-0.44850000,0.05450000
163968,-0.46800000,0.05300000
163969,-0.48350000,0.05100000
163970,-0.49650000,0.04900000
163971,-0.51150000,0.04800000
163972,-0.52250000,0.05200000
163973,-0.52900000,0.05650000
163974,-0.53600000,0.05850000
163975,-0.53600000,0.05800000
163976,-0.53350000,0.05800000
163977,-0.52900000,0.05800000
163978,-0.52250000,0.05950000
163979,-0.50950000,0.06150000
163980,-0.49000000,0.06200000
163981,-0.45700000,0.06150000
163982,-0.42000000,0.05650000
163983,-0.36950000,0.04700000
163984,-0.30850000,0.03400000
163985,-0.23400000,0.02700000
163986,-0.15500000,0.02100000
163987,-0.06750000,0.01300000
163988,0.02650000,0.00650000
163989,0.11850000,0.00150000
163990,0.20800000,-0.00400000
163991,0.29100000,-0.00550000
163992,0.36100000,-0.00250000
163993,0.42450000,-0.00150000
163994,0.47050000,-0.00500000
163995,0.50100000,-0.00400000
163996,0.51850000,-0.00050000
163997,0.51650000,0.00150000
163998,0.50350000,0.00700000
163999,0.47500000,0.02300000
164000,0.41600000,0.04550000
164001,0.36350000,0.06500000
164002,0.30200000,0.08450000
164003,0.23000000,0.10100000
164004,0.15550000,0.09800000
164005,0.08100000,0.07300000
164006,0.00250000,0.04400000
164007,-0.07000000,0.02100000
164008,-0.13750000,0.00500000
164009,-0.19250000,-0.00750000
164010,-0.23850000,-0.02000000
164011,-0.27350000,-0.02900000
164012,-0.29500000,-0.03350000
164013,-0.30850000,-0.03650000
164014,-0.30600000,-0.03950000
164015,-0.30150000,-0.03700000
164016,-0.28650000,-0.03650000
164017,-0.27100000,-0.03850000
164018,-0.25150000,-0.04050000
164019,-0.23850000,-0.04050000
164020,-0.22100000,-0.02750000
164021,-0.21200000,-0.01000000
164022,-0.20750000,-0.02600000
164023,-0.20550000,-0.08400000
164024,-0.20750000,-0.14600000
164025,-0.21650000,-0.20200000
164026,-0.22950000,-0.24700000
164027,-0.24500000,-0.26750000
164028,-0.26000000,-0.26000000
164029,-0.28000000,-0.21200000
164030,-0.29950000,-0.13000000
164031,-0.31900000,-0.05250000
164032,-0.34550000,-0.00500000
164033,-0.36750000,0.01600000
164034,-0.39150000,0.02200000
164035,-0.41100000,0.02500000
164036,-0.43500000,0.02500000
164037,-0.45700000,0.02500000
164038,-0.47650000,0.02500000
164039,-0.49650000,0.02500000
164040,-0.51150000,0.02500000
164041,-0.52900000,0.02500000
164042,-0.54250000,0.02500000
164043,-0.55350000,0.02500000
164044,-0.56650000,0.02850000
164045,-0.57300000,0.03250000
164046,-0.57750000,0.04050000
164047,-0.58150000,0.04400000
164048,-0.57950000,0.04400000
164049,-0.57750000,0.04400000
164050,-0.57100000,0.04650000
164051,-0.55750000,0.04700000
164052,-0.53800000,0.05050000
164053,-0.51400000,0.05150000
164054,-0.47650000,0.05350000
164055,-0.43300000,0.04950000
164056,-0.37400000,0.04150000
164057,-0.30850000,0.03250000
164058,-0.22950000,0.02400000
164059,-0.14650000,0.01750000
164060,-0.05450000,0.01250000
164061,0.03950000,0.00650000
164062,0.13350000,0.00200000
164063,0.21650000,-0.00050000
164064,0.28800000,0.00000000
164065,0.35450000,0.00000000
164066,0.40650000,0.00150000
164067,0.44700000,0.00300000
164068,0.47050000,0.00800000
164069,0.47950000,0.01250000
164070,0.47050000,0.01700000
164071,0.45150000,0.03250000
164072,0.41700000,0.05550000
164073,0.37200000,0.07800000
164074,0.31400000,0.10000000
164075,0.25150000,0.12050000
164076,0.17650000,0.12000000
164077,0.10350000,0.10000000
164078,0.02600000,0.06950000
164079,-0.04900000,0.03700000
164080,-0.11800000,0.01400000
164081,-0.17800000,0.00050000
164082,-0.22950000,-0.00950000
164083,-0.26600000,-0.01650000
164084,-0.29200000,-0.02400000
164085,-0.30900000,-0.03000000
164086,-0.31150000,-0.03300000
164087,-0.30700000,-0.03300000
164088,-0.29400000,-0.03300000
164089,-0.27500000,-0.03300000
164090,-0.25950000,-0.03300000
164091,-0.23800000,-0.03400000
164092,-0.22300000,-0.02400000
164093,-0.21250000,-0.00700000
164094,-0.20150000,-0.01350000
164095,-0.19950000,-0.05900000
164096,-0.19750000,-0.12400000
164097,-0.20400000,-0.18450000
164098,-0.21450000,-0.23200000
164099,-0.22300000,-0.26050000
164100,-0.24250000,-0.26600000
164101,-0.25950000,-0.22650000
164102,-0.27900000,-0.14450000
164103,-0.30250000,-0.06050000
164104,-0.32400000,0.00000000
164105,-0.34800000,0.02650000
164106,-0.36700000,0.03250000
164107,-0.39300000,0.03550000
164108,-0.41450000,0.03600000
164109,-0.43800000,0.03600000
164110,-0.45750000,0.03600000
164111,-0.47650000,0.03600000
164112,-0.49800000,0.03800000
164113,-0.51100000,0.04000000
164114,-0.52600000,0.03950000
164115,-0.53700000,0.03650000
164116,-0.55000000,0.03800000
164117,-0.55600000,0.04250000
164118,-0.55850000,0.04050000
164119,-0.56050000,0.03600000
164120,-0.56250000,0.03750000
164121,-0.55600000,0.03800000
164122,-0.55200000,0.03850000
164123,-0.53900000,0.04500000
164124,-0.51950000,0.05200000
164125,-0.50050000,0.05100000
164126,-0.46600000,0.04700000
164127,-0.42500000,0.04150000
164128,-0.36000000,0.03750000
164129,-0.30050000,0.03250000
164130,-0.22850000,0.02550000
164131,-0.15050000,0.02000000
164132,-0.06350000,0.01400000
164133,0.02750000,0.00900000
164134,0.11450000,0.00450000
164135,0.19900000,0.00300000
164136,0.27750000,0.00100000
164137,0.34500000,-0.00200000
164138,0.40000000,-0.00350000
164139,0.44250000,-0.00050000
164140,0.46800000,0.00000000
164141,0.48050000,0.00200000
164142,0.47650000,0.00850000
164143,0.45950000,0.02400000
164144,0.42950000,0.04800000
164145,0.38550000,0.06850000
164146,0.33250000,0.08400000
164147,0.27100000,0.10050000
164148,0.20100000,0.10850000
164149,0.12700000,0.09500000
164150,0.05300000,0.07000000
164151,-0.01900000,0.04050000
164152,-0.08900000,0.01800000
164153,-0.14800000,0.00450000
164154,-0.19900000,-0.00650000
164155,-0.23950000,-0.01800000
164156,-0.26700000,-0.02750000
164157,-0.28350000,-0.03400000
164158,-0.28800000,-0.03350000
164159,-0.28150000,-0.03300000
164160,-0.26900000,-0.03400000
164161,-0.25600000,-0.03500000
164162,-0.23500000,-0.03500000
164163,-0.21600000,-0.03450000
164164,-0.20100000,-0.02600000
164165,-0.18400000,-0.01050000
164166,-0.17600000,-0.01550000
164167,-0.16950000,-0.06200000
164168,-0.16950000,-0.11450000
164169,-0.17150000,-0.15750000
164170,-0.18000000,-0.20450000
164171,-0.19250000,-0.23900000
164172,-0.20950000,-0.25100000
164173,-0.22650000,-0.22600000
164174,-0.24800000,-0.15700000
164175,-0.26900000,-0.07350000
164176,-0.29200000,-0.00750000
164177,-0.31750000,0.02300000
164178,-0.34100000,0.03550000
164179,-0.36400000,0.04200000
164180,-0.39150000,0.04350000
164181,-0.41300000,0.04200000
164182,-0.43400000,0.03950000
164183,-0.45300000,0.04000000
164184,-0.46800000,0.04250000
164185,-0.48500000,0.04100000
164186,-0.49750000,0.04500000
164187,-0.51050000,0.05250000
164188,-0.51900000,0.05300000
164189,-0.52300000,0.05100000
164190,-0.52700000,0.05600000
164191,-0.52700000,0.06300000
164192,-0.51050000,0.06550000
164193,-0.50850000,0.06300000
164194,-0.50450000,0.06200000
164195,-0.48950000,0.06200000
164196,-0.47700000,0.06550000
164197,-0.45400000,0.06650000
164198,-0.42200000,0.06450000
164199,-0.38400000,0.06150000
164200,-0.33750000,0.05800000
164201,-0.27650000,0.04950000
164202,-0.20700000,0.04150000
164203,-0.12700000,0.03450000
164204,-0.04250000,0.03000000
164205,0.04850000,0.02400000
164206,0.13700000,0.01950000
164207,0.22100000,0.01600000
164208,0.30350000,0.01350000
164209,0.37300000,0.01050000
164210,0.43000000,0.01250000
164211,0.47250000,0.01450000
164212,0.49950000,0.01550000
164213,0.51650000,0.01800000
164214,0.51450000,0.02150000
164215,0.49750000,0.03650000
164216,0.46800000,0.06300000
164217,0.42600000,0.08700000
164218,0.37100000,0.10650000
164219,0.30750000,0.11500000
164220,0.24000000,0.10400000
164221,0.16650000,0.08150000
164222,0.09050000,0.05500000
164223,0.01650000,0.02800000
164224,-0.05500000,0.01000000
164225,-0.12050000,-0.00300000
164226,-0.17100000,-0.01550000
164227,-0.21350000,-0.02800000
164228,-0.24050000,-0.03600000
164229,-0.25950000,-0.03950000
164230,-0.26400000,-0.03300000
164231,-0.26200000,-0.02250000
164232,-0.24900000,-0.01800000
164233,-0.23250000,-0.02300000
164234,-0.21350000,-0.02600000
164235,-0.19200000,-0.02550000
164236,-0.17550000,-0.01650000
164237,-0.16050000,0.00100000
164238,-0.15000000,-0.01150000
164239,-0.14350000,-0.06550000
164240,-0.14150000,-0.12250000
164241,-0.14600000,-0.17150000
164242,-0.15400000,-0.21900000
164243,-0.16500000,-0.25400000
164244,-0.17950000,-0.26200000
164245,-0.20050000,-0.22950000
164246,-0.22150000,-0.15650000
164247,-0.24300000,-0.07500000
164248,-0.26800000,-0.01300000
164249,-0.29350000,0.01450000
164250,-0.31900000,0.02300000
164251,-0.34400000,0.02700000
164252,-0.36750000,0.03050000
164253,-0.39050000,0.03250000
164254,-0.41150000,0.03200000
164255,-0.43050000,0.03300000
164256,-0.43500000,0.03500000
164257,-0.45150000,0.03550000
164258,-0.46400000,0.03450000
164259,-0.47250000,0.03550000
164260,-0.48300000,0.03550000
164261,-0.48750000,0.03450000
164262,-0.49150000,0.03750000
164263,-0.49350000,0.04000000
164264,-0.49350000,0.04100000
164265,-0.48750000,0.04200000
164266,-0.47900000,0.04550000
164267,-0.46850000,0.05400000
164268,-0.45150000,0.06000000
164269,-0.42650000,0.05800000
164270,-0.39500000,0.05950000
164271,-0.35700000,0.05950000
164272,-0.30650000,0.05300000
164273,-0.24350000,0.04500000
164274,-0.17200000,0.03650000
164275,-0.09200000,0.03200000
164276,-0.00800000,0.02750000
164277,0.08200000,0.02300000
164278,0.17050000,0.01850000
164279,0.25650000,0.01600000
164280,0.33450000,0.01400000
164281,0.40350000,0.01400000
164282,0.46050000,0.01400000
164283,0.50050000,0.01900000
164284,0.53000000,0.02200000
164285,0.53800000,0.02200000
164286,0.53800000,0.02900000
164287,0.51950000,0.04800000
164288,0.48550000,0.07900000
164289,0.44150000,0.10400000
164290,0.38700000,0.12500000
164291,0.32600000,0.13950000
164292,0.25250000,0.13800000
164293,0.17700000,0.11850000
164294,0.09900000,0.09050000
164295,0.02150000,0.06100000
164296,-0.04800000,0.04150000
164297,-0.11100000,0.03100000
164298,-0.16350000,0.02350000
164299,-0.20550000,0.01350000
164300,-0.23500000,0.01050000
164301,-0.25200000,0.01100000
164302,-0.25400000,0.01100000
164303,-0.25000000,0.01100000
164304,-0.23700000,0.01100000
164305,-0.22050000,0.00900000
164306,-0.20150000,0.00650000
164307,-0.18050000,0.00900000
164308,-0.16350000,0.01900000
164309,-0.14900000,0.02900000
164310,-0.13850000,0.01150000
164311,-0.13200000,-0.04250000
164312,-0.13200000,-0.10400000
164313,-0.13200000,-0.16650000
164314,-0.14050000,-0.21100000
164315,-0.15300000,-0.22800000
164316,-0.17200000,-0.22000000
164317,-0.18700000,-0.17050000
164318,-0.20800000,-0.09150000
164319,-0.23100000,-0.01650000
164320,-0.25750000,0.02750000
164321,-0.28050000,0.04850000
164322,-0.30350000,0.05850000
164323,-0.32650000,0.06350000
164324,-0.34550000,0.06700000
164325,-0.36850000,0.06950000
164326,-0.38950000,0.07250000
164327,-0.40600000,0.07600000
164328,-0.42500000,0.07600000
164329,-0.43950000,0.07450000
164330,-0.45450000,0.07500000
164331,-0.46500000,0.07700000
164332,-0.47300000,0.07900000
164333,-0.47950000,0.08000000
164334,-0.48350000,0.08550000
164335,-0.48350000,0.09300000
164336,-0.48350000,0.09800000
164337,-0.47750000,0.10000000
164338,-0.46700000,0.10700000
164339,-0.45450000,0.11150000
164340,-0.43350000,0.11450000
164341,-0.40400000,0.10950000
164342,-0.37050000,0.10150000
164343,-0.32450000,0.09400000
164344,-0.26600000,0.08600000
164345,-0.20100000,0.07650000
164346,-0.12150000,0.06700000
164347,-0.03750000,0.05550000
164348,0.05250000,0.04400000
164349,0.14450000,0.03600000
164350,0.23650000,0.03050000
164351,0.32050000,0.03250000
164352,0.40000000,0.03550000
164353,0.46500000,0.03450000
164354,0.51900000,0.03600000
164355,0.55700000,0.04300000
164356,0.57800000,0.04700000
164357,0.58400000,0.05350000
164358,0.57600000,0.07550000
164359,0.55050000,0.10550000
164360,0.51500000,0.13050000
164361,0.46500000,0.14500000
164362,0.41050000,0.15350000
164363,0.34150000,0.14900000
164364,0.27000000,0.13400000
164365,0.19250000,0.10950000
164366,0.11500000,0.07850000
164367,0.04400000,0.05350000
164368,-0.02700000,0.03650000
164369,-0.08600000,0.02700000
164370,-0.13400000,0.02000000
164371,-0.17400000,0.01400000
164372,-0.20100000,0.01200000
164373,-0.21550000,0.01250000
164374,-0.22000000,0.01200000
164375,-0.21350000,0.01100000
164376,-0.20300000,0.00700000
164377,-0.18650000,0.00400000
164378,-0.16750000,0.00850000
164379,-0.14850000,0.01950000
164380,-0.13400000,0.03450000
164381,-0.11950000,0.02250000
164382,-0.11100000,-0.03600000
164383,-0.10700000,-0.11150000
164384,-0.12000000,-0.17850000
164385,-0.12650000,-0.22550000
164386,-0.13450000,-0.24300000
164387,-0.14700000,-0.23100000
164388,-0.16150000,-0.18000000
164389,-0.18200000,-0.09700000
164390,-0.20300000,-0.01850000
164391,-0.22550000,0.02850000
164392,-0.25050000,0.05200000
164393,-0.27300000,0.06100000
164394,-0.29600000,0.06300000
164395,-0.31900000,0.06400000
164396,-0.34350000,0.06550000
164397,-0.36250000,0.06300000
164398,-0.38300000,0.06200000
164399,-0.40150000,0.06200000
164400,-0.41800000,0.06500000
164401,-0.43250000,0.06350000
164402,-0.44700000,0.06200000
164403,-0.45750000,0.06350000
164404,-0.46600000,0.06700000
164405,-0.47200000,0.06950000
164406,-0.47400000,0.07200000
164407,-0.47400000,0.07300000
164408,-0.47000000,0.07300000
164409,-0.46150000,0.07500000
164410,-0.44700000,0.08000000
164411,-0.42850000,0.08650000
164412,-0.40350000,0.08600000
164413,-0.36850000,0.08150000
164414,-0.32300000,0.07650000
164415,-0.26900000,0.07050000
164416,-0.20300000,0.06200000
164417,-0.12850000,0.05350000
164418,-0.04350000,0.04500000
164419,0.04350000,0.03450000
164420,0.13650000,0.02700000
164421,0.22550000,0.02150000
164422,0.30850000,0.01800000
164423,0.38500000,0.01800000
164424,0.44700000,0.01950000
164425,0.49900000,0.02350000
164426,0.53200000,0.02550000
164427,0.55050000,0.02700000
164428,0.55700000,0.03600000
164429,0.54650000,0.05400000
164430,0.52200000,0.07450000
164431,0.48250000,0.10050000
164432,0.43500000,0.12750000
164433,0.37500000,0.14200000
164434,0.30650000,0.13800000
164435,0.23400000,0.12000000
164436,0.15950000,0.09250000
164437,0.08100000,0.05850000
164438,0.00850000,0.03150000
164439,-0.06200000,0.01800000
164440,-0.12200000,0.01100000
164441,-0.17200000,0.00000000
164442,-0.21100000,-0.01100000
164443,-0.23600000,-0.02050000
164444,-0.25050000,-0.02700000
164445,-0.25450000,-0.03000000
164446,-0.25250000,-0.03300000
164447,-0.24000000,-0.03300000
164448,-0.24350000,-0.03300000
164449,-0.22700000,-0.03350000
164450,-0.20800000,-0.02450000
164451,-0.19600000,-0.00600000
164452,-0.18350000,-0.02300000
164453,-0.17750000,-0.08850000
164454,-0.17500000,-0.16750000
164455,-0.17950000,-0.23300000
164456,-0.18350000,-0.27700000
164457,-0.19600000,-0.29650000
164458,-0.21250000,-0.29300000
164459,-0.22900000,-0.24550000
164460,-0.24750000,-0.16150000
164461,-0.26800000,-0.08150000
164462,-0.29300000,-0.02800000
164463,-0.31750000,0.00050000
164464,-0.34000000,0.01100000
164465,-0.36500000,0.01400000
164466,-0.38750000,0.01550000
164467,-0.41050000,0.01800000
164468,-0.43300000,0.01800000
164469,-0.45350000,0.01800000
164470,-0.47200000,0.01800000
164471,-0.49100000,0.01950000
164472,-0.50750000,0.01950000
164473,-0.51950000,0.01800000
164474,-0.53000000,0.01800000
164475,-0.53800000,0.02100000
164476,-0.54450000,0.02350000
164477,-0.54650000,0.02550000
164478,-0.54650000,0.02500000
164479,-0.54250000,0.02650000
164480,-0.53800000,0.03000000
164481,-0.52400000,0.02950000
164482,-0.50950000,0.03050000
164483,-0.48050000,0.03250000
164484,-0.44750000,0.03000000
164485,-0.40200000,0.02400000
164486,-0.35050000,0.01950000
164487,-0.28450000,0.01750000
164488,-0.20600000,0.01250000
164489,-0.12550000,0.00300000
164490,-0.03500000,-0.01050000
164491,0.05600000,-0.02150000
164492,0.14250000,-0.02800000
164493,0.22700000,-0.03150000
164494,0.30350000,-0.03350000
164495,0.36700000,-0.03300000
164496,0.41900000,-0.03100000
164497,0.45400000,-0.02950000
164498,0.47250000,-0.02900000
164499,0.48050000,-0.02100000
164500,0.47050000,-0.00550000
164501,0.44950000,0.01350000
164502,0.41250000,0.03200000
164503,0.36500000,0.05400000
164504,0.30950000,0.07200000
164505,0.24150000,0.07450000
164506,0.16900000,0.06550000
164507,0.09500000,0.04850000
164508,0.02050000,0.02350000
164509,-0.05550000,-0.00350000
164510,-0.12150000,-0.02550000
164511,-0.18150000,-0.03800000
164512,-0.22950000,-0.05050000
164513,-0.26850000,-0.05950000
164514,-0.29700000,-0.05700000
164515,-0.31150000,-0.04850000
164516,-0.31350000,-0.04900000
164517,-0.31150000,-0.05150000
164518,-0.29900000,-0.05100000
164519,-0.28450000,-0.05150000
164520,-0.26850000,-0.05150000
164521,-0.25000000,-0.05050000
164522,-0.23350000,-0.03600000
164523,-0.22350000,-0.03250000
164524,-0.21300000,-0.07050000
164525,-0.21100000,-0.13150000
164526,-0.20900000,-0.18600000
164527,-0.21500000,-0.24150000
164528,-0.22350000,-0.28150000
164529,-0.23550000,-0.29850000
164530,-0.25200000,-0.27850000
164531,-0.27050000,-0.21000000
164532,-0.29100000,-0.12750000
164533,-0.31150000,-0.06200000
164534,-0.33400000,-0.02450000
164535,-0.35850000,-0.00650000
164536,-0.38100000,0.00050000
164537,-0.40350000,0.00350000
164538,-0.42600000,0.00300000
164539,-0.44650000,0.00450000
164540,-0.46900000,0.00900000
164541,-0.48750000,0.01200000
164542,-0.50350000,0.01300000
164543,-0.51800000,0.01350000
164544,-0.53450000,0.01200000
164545,-0.54650000,0.01050000
164546,-0.55500000,0.01250000
164547,-0.56300000,0.01600000
164548,-0.56500000,0.01800000
164549,-0.56700000,0.01800000
164550,-0.56300000,0.02150000
164551,-0.55900000,0.02500000
164552,-0.54650000,0.02450000
164553,-0.53250000,0.02200000
164554,-0.51000000,0.02200000
164555,-0.47700000,0.02500000
164556,-0.44050000,0.02300000
164557,-0.38900000,0.01650000
164558,-0.32950000,0.01400000
164559,-0.26200000,0.01200000
164560,-0.18250000,0.00300000
164561,-0.09850000,-0.00500000
164562,-0.00850000,-0.00800000
164563,0.08350000,-0.01200000
164564,0.16950000,-0.01850000
164565,0.25350000,-0.01700000
164566,0.32300000,-0.01400000
164567,0.38250000,-0.01150000
164568,0.42950000,-0.01100000
164569,0.46050000,-0.01300000
164570,0.47650000,-0.01100000
164571,0.47650000,-0.00150000
164572,0.46050000,0.01450000
164573,0.43400000,0.03050000
164574,0.39500000,0.05250000
164575,0.34350000,0.07400000
164576,0.28000000,0.09000000
164577,0.21250000,0.09250000
164578,0.13900000,0.08050000
164579,0.06550000,0.05850000
164580,-0.01050000,0.03250000
164581,-0.08200000,0.01050000
164582,-0.14550000,-0.01000000
164583,-0.20300000,-0.02400000
164584,-0.24400000,-0.03450000
164585,-0.27850000,-0.04150000
164586,-0.29700000,-0.04450000
164587,-0.30500000,-0.04550000
164588,-0.30300000,-0.04800000
164589,-0.29500000,-0.04950000
164590,-0.28050000,-0.04800000
164591,-0.26200000,-0.04800000
164592,-0.24600000,-0.05050000
164593,-0.22750000,-0.04400000
164594,-0.21500000,-0.02750000
164595,-0.20100000,-0.03400000
164596,-0.19450000,-0.08150000
164597,-0.19450000,-0.14050000
164598,-0.19650000,-0.19650000
164599,-0.20500000,-0.24700000
164600,-0.21700000,-0.27950000
164601,-0.23150000,-0.29050000
164602,-0.24600000,-0.26300000
164603,-0.26650000,-0.18800000
164604,-0.28900000,-0.10450000
164605,-0.30950000,-0.04850000
164606,-0.33400000,-0.01700000
164607,-0.35450000,-0.00100000
164608,-0.37700000,0.00550000
164609,-0.39950000,0.00700000
164610,-0.42200000,0.00850000
164611,-0.44450000,0.01100000
164612,-0.46300000,0.01400000
164613,-0.48100000,0.01400000
164614,-0.49750000,0.01400000
164615,-0.51200000,0.01400000
164616,-0.52400000,0.01750000
164617,-0.53050000,0.01750000
164618,-0.53850000,0.01500000
164619,-0.54250000,0.01750000
164620,-0.54250000,0.02100000
164621,-0.54250000,0.02050000
164622,-0.53850000,0.02100000
164623,-0.52850000,0.02650000
164624,-0.51800000,0.03000000
164625,-0.49950000,0.02900000
164626,-0.47500000,0.02750000
164627,-0.44250000,0.03050000
164628,-0.40350000,0.03050000
164629,-0.35200000,0.02400000
164630,-0.29100000,0.01800000
164631,-0.21900000,0.01550000
164632,-0.14150000,0.01000000
164633,-0.05350000,0.00300000
164634,0.03250000,-0.00350000
164635,0.12250000,-0.00700000
164636,0.20850000,-0.00750000
164637,0.28850000,-0.00700000
164638,0.35400000,-0.00750000
164639,0.41100000,-0.00500000
164640,0.45700000,-0.00100000
164641,0.48550000,0.00000000
164642,0.49550000,0.00050000
164643,0.49350000,0.01050000
164644,0.47350000,0.02900000
164645,0.44500000,0.05000000
164646,0.40000000,0.07250000
164647,0.34750000,0.09650000
164648,0.28250000,0.11500000
164649,0.21550000,0.11300000
164650,0.14000000,0.09300000
164651,0.06500000,0.06950000
164652,-0.01000000,0.04200000
164653,-0.07900000,0.01750000
164654,-0.14000000,0.00100000
164655,-0.19500000,-0.01200000
164656,-0.23350000,-0.01900000
164657,-0.26200000,-0.02200000
164658,-0.27850000,-0.02550000
164659,-0.28250000,-0.02750000
164660,-0.28050000,-0.02600000
164661,-0.27000000,-0.03050000
164662,-0.25200000,-0.03350000
164663,-0.23550000,-0.03300000
164664,-0.21750000,-0.03050000
164665,-0.19900000,-0.01850000
164666,-0.18700000,-0.00600000
164667,-0.17650000,-0.02600000
164668,-0.17050000,-0.07900000
164669,-0.17050000,-0.13350000
164670,-0.17050000,-0.18750000
164671,-0.17850000,-0.23500000
164672,-0.19100000,-0.26900000
164673,-0.20500000,-0.28000000
164674,-0.22550000,-0.24400000
164675,-0.24350000,-0.16750000
164676,-0.26800000,-0.08950000
164677,-0.29050000,-0.03100000
164678,-0.31300000,0.00000000
164679,-0.33700000,0.00950000
164680,-0.36150000,0.01400000
164681,-0.38600000,0.01550000
164682,-0.40600000,0.01800000
164683,-0.42850000,0.01600000
164684,-0.44700000,0.01450000
164685,-0.46500000,0.01400000
164686,-0.48150000,0.01400000
164687,-0.49350000,0.01400000
164688,-0.50350000,0.01400000
164689,-0.51200000,0.01400000
164690,-0.51600000,0.01400000
164691,-0.52000000,0.01550000
164692,-0.52000000,0.01800000
164693,-0.51400000,0.01800000
164694,-0.51200000,0.01800000
164695,-0.49950000,0.02100000
164696,-0.48950000,0.02200000
164697,-0.46900000,0.02200000
164698,-0.44500000,0.02200000
164699,-0.41050000,0.02200000
164700,-0.36950000,0.02200000
164701,-0.31700000,0.02000000
164702,-0.25600000,0.01250000
164703,-0.18500000,0.00500000
164704,-0.09200000,0.00050000
164705,-0.00850000,-0.01100000
164706,0.08150000,-0.02350000
164707,0.16900000,-0.02950000
164708,0.25050000,-0.03000000
164709,0.32600000,-0.03350000
164710,0.39150000,-0.03600000
164711,0.44450000,-0.03700000
164712,0.48500000,-0.03700000
164713,0.50950000,-0.03500000
164714,0.52000000,-0.03050000
164715,0.51150000,-0.01800000
164716,0.49350000,0.00350000
164717,0.46050000,0.02300000
164718,0.41400000,0.04100000
164719,0.35650000,0.06000000
164720,0.28950000,0.07350000
164721,0.21800000,0.07050000
164722,0.14250000,0.05100000
164723,0.06500000,0.02600000
164724,-0.00850000,0.00000000
164725,-0.07750000,-0.02250000
164726,-0.13650000,-0.03550000
164727,-0.18350000,-0.04250000
164728,-0.22050000,-0.05300000
164729,-0.24500000,-0.05850000
164730,-0.26100000,-0.05900000
164731,-0.26300000,-0.06100000
164732,-0.25700000,-0.06750000
164733,-0.24300000,-0.07000000
164734,-0.22850000,-0.07000000
164735,-0.21000000,-0.06800000
164736,-0.19200000,-0.06350000
164737,-0.17350000,-0.05050000
164738,-0.16350000,-0.04350000
164739,-0.15100000,-0.07350000
164740,-0.14900000,-0.13400000
164741,-0.14900000,-0.18700000
164742,-0.15700000,-0.23500000
164743,-0.16550000,-0.28050000
164744,-0.17750000,-0.31150000
164745,-0.19600000,-0.30950000
164746,-0.21200000,-0.25200000
164747,-0.23450000,-0.17150000
164748,-0.25700000,-0.10050000
164749,-0.28150000,-0.05600000
164750,-0.30400000,-0.03550000
164751,-0.32650000,-0.02950000
164752,-0.35100000,-0.02800000
164753,-0.37350000,-0.02950000
164754,-0.39350000,-0.02800000
164755,-0.41600000,-0.02400000
164756,-0.43250000,-0.02050000
164757,-0.45100000,-0.01850000
164758,-0.46100000,-0.02300000
164759,-0.47750000,-0.02400000
164760,-0.48550000,-0.01550000
164761,-0.49350000,-0.00900000
164762,-0.49750000,-0.00950000
164763,-0.50150000,-0.00750000
164764,-0.50150000,-0.00400000
164765,-0.49950000,-0.00400000
164766,-0.49150000,-0.00200000
164767,-0.48150000,0.00300000
164768,-0.45700000,0.00300000
164769,-0.43650000,0.00250000
164770,-0.40600000,0.00100000
164771,-0.37150000,0.00000000
164772,-0.32500000,-0.00050000
164773,-0.27000000,-0.00500000
164774,-0.20500000,-0.01450000
164775,-0.13000000,-0.02400000
164776,-0.05050000,-0.03000000
164777,0.03700000,-0.03350000
164778,0.12400000,-0.03950000
164779,0.20950000,-0.04400000
164780,0.28850000,-0.04350000
164781,0.36400000,-0.04200000
164782,0.42700000,-0.04200000
164783,0.47550000,-0.04000000
164784,0.51000000,-0.03650000
164785,0.53250000,-0.03350000
164786,0.53650000,-0.02550000
164787,0.52650000,-0.00550000
164788,0.50000000,0.01700000
164789,0.46350000,0.03750000
164790,0.41450000,0.05800000
164791,0.35350000,0.07500000
164792,0.28450000,0.08050000
164793,0.21350000,0.07300000
164794,0.13450000,0.05600000
164795,0.05700000,0.03450000
164796,-0.01600000,0.01350000
164797,-0.07900000,-0.00450000
164798,-0.13800000,-0.02200000
164799,-0.18250000,-0.03000000
164800,-0.21500000,-0.03300000
164801,-0.23950000,-0.03300000
164802,-0.24950000,-0.03400000
164803,-0.25150000,-0.03500000
164804,-0.24350000,-0.03500000
164805,-0.23350000,-0.03700000
164806,-0.21500000,-0.03950000
164807,-0.19700000,-0.03450000
164808,-0.18050000,-0.02350000
164809,-0.16450000,-0.00650000
164810,-0.15200000,-0.00500000
164811,-0.14400000,-0.04750000
164812,-0.14200000,-0.10900000
164813,-0.14400000,-0.16800000
164814,-0.14800000,-0.22200000
164815,-0.16050000,-0.26000000
164816,-0.17250000,-0.27150000
164817,-0.19050000,-0.24400000
164818,-0.20700000,-0.17500000
164819,-0.22950000,-0.09150000
164820,-0.24950000,-0.02550000
164821,-0.27000000,0.00700000
164822,-0.29450000,0.01850000
164823,-0.31650000,0.02450000
164824,-0.33700000,0.02900000
164825,-0.36150000,0.03050000
164826,-0.37950000,0.03200000
164827,-0.39800000,0.03250000
164828,-0.41600000,0.03350000
164829,-0.43050000,0.03450000
164830,-0.44450000,0.03550000
164831,-0.45500000,0.03600000
164832,-0.46950000,0.03600000
164833,-0.47550000,0.03800000
164834,-0.48200000,0.04150000
164835,-0.48400000,0.04700000
164836,-0.48000000,0.05300000
164837,-0.47550000,0.05950000
164838,-0.46950000,0.06400000
164839,-0.45550000,0.06900000
164840,-0.44150000,0.06850000
164841,-0.41900000,0.06550000
164842,-0.38450000,0.06650000
164843,-0.34400000,0.06900000
164844,-0.29150000,0.06700000
164845,-0.23100000,0.05950000
164846,-0.16000000,0.04900000
164847,-0.07900000,0.04200000
164848,0.00800000,0.03600000
164849,0.10100000,0.03000000
164850,0.19200000,0.02550000
164851,0.27700000,0.02300000
164852,0.35800000,0.02200000
164853,0.42850000,0.02350000
164854,0.48750000,0.02350000
164855,0.53200000,0.02350000
164856,0.55800000,0.02750000
164857,0.57250000,0.03250000
164858,0.57050000,0.04300000
164859,0.55600000,0.06150000
164860,0.52400000,0.09050000
164861,0.48350000,0.12000000
164862,0.42850000,0.14150000
164863,0.36400000,0.15400000
164864,0.29300000,0.15450000
164865,0.21850000,0.14250000
164866,0.14350000,0.11900000
164867,0.06650000,0.08950000
164868,-0.00200000,0.06550000
164869,-0.06700000,0.05100000
164870,-0.12150000,0.03800000
164871,-0.16400000,0.02900000
164872,-0.19450000,0.02550000
164873,-0.21250000,0.02300000
164874,-0.21900000,0.02200000
164875,-0.21900000,0.02000000
164876,-0.20850000,0.01750000
164877,-0.19450000,0.01800000
164878,-0.17650000,0.01800000
164879,-0.15800000,0.01800000
164880,-0.14000000,0.02200000
164881,-0.12950000,0.03650000
164882,-0.11750000,0.02900000
164883,-0.10950000,-0.02450000
164884,-0.11150000,-0.09650000
164885,-0.11350000,-0.16400000
164886,-0.12350000,-0.21150000
164887,-0.13400000,-0.22800000
164888,-0.15000000,-0.22350000
164889,-0.16800000,-0.18100000
164890,-0.18650000,-0.09700000
164891,-0.20850000,-0.01350000
164892,-0.22900000,0.03700000
164893,-0.25300000,0.05950000
164894,-0.27550000,0.07100000
164895,-0.29950000,0.07750000
164896,-0.33550000,0.07950000
164897,-0.35350000,0.07650000
164898,-0.37350000,0.07600000
164899,-0.39150000,0.07800000
164900,-0.40800000,0.08000000
164901,-0.42400000,0.08200000
164902,-0.43400000,0.08000000
164903,-0.44600000,0.08000000
164904,-0.45400000,0.08000000
164905,-0.46000000,0.08350000
164906,-0.46200000,0.08600000
164907,-0.46400000,0.09300000
164908,-0.46200000,0.09950000
164909,-0.45600000,0.10400000
164910,-0.45000000,0.10750000
164911,-0.43600000,0.11300000
164912,-0.41600000,0.11100000
164913,-0.38950000,0.10550000
164914,-0.35350000,0.10150000
164915,-0.30750000,0.09850000
164916,-0.25100000,0.09250000
164917,-0.18700000,0.08400000
164918,-0.11250000,0.07450000
164919,-0.02850000,0.07050000
164920,0.06000000,0.06400000
164921,0.15250000,0.05950000
164922,0.24100000,0.05300000
164923,0.32300000,0.04850000
164924,0.39950000,0.04200000
164925,0.46150000,0.03950000
164926,0.51400000,0.04500000
164927,0.55000000,0.05250000
164928,0.57000000,0.05650000
164929,0.57400000,0.06200000
164930,0.56600000,0.07450000
164931,0.54200000,0.09550000
164932,0.50600000,0.12500000
164933,0.45750000,0.15100000
164934,0.39950000,0.17100000
164935,0.33300000,0.18000000
164936,0.25900000,0.17500000
164937,0.18450000,0.15450000
164938,0.10600000,0.12800000
164939,0.03200000,0.09950000
164940,-0.03850000,0.07450000
164941,-0.09850000,0.05800000
164942,-0.14900000,0.04550000
164943,-0.18900000,0.03900000
164944,-0.21500000,0.03300000
164945,-0.23300000,0.02850000
164946,-0.23700000,0.02550000
164947,-0.23500000,0.02300000
164948,-0.22500000,0.01850000
164949,-0.21500000,0.01600000
164950,-0.20100000,0.01600000
164951,-0.18500000,0.02200000
164952,-0.17300000,0.03250000
164953,-0.16500000,0.04500000
164954,-0.15900000,0.02400000
164955,-0.15900000,-0.03750000
164956,-0.16100000,-0.11200000
164957,-0.16900000,-0.18050000
164958,-0.17900000,-0.22100000
164959,-0.19500000,-0.23150000
164960,-0.23000000,-0.22000000
164961,-0.25000000,-0.17350000
164962,-0.27200000,-0.09350000
164963,-0.29600000,-0.01550000
164964,-0.32000000,0.02800000
164965,-0.34600000,0.04850000
164966,-0.37000000,0.06000000
164967,-0.39200000,0.06400000
164968,-0.41400000,0.06900000
164969,-0.43600000,0.06900000
164970,-0.45800000,0.06900000
164971,-0.47400000,0.06850000
164972,-0.49200000,0.06550000
164973,-0.50600000,0.06500000
164974,-0.52200000,0.06500000
164975,-0.53200000,0.06500000
164976,-0.54200000,0.06800000
164977,-0.54800000,0.06950000
164978,-0.55000000,0.06900000
164979,-0.55200000,0.07350000
164980,-0.55200000,0.07650000
164981,-0.54800000,0.07600000
164982,-0.54000000,0.07850000
164983,-0.52600000,0.08200000
164984,-0.50800000,0.08400000
164985,-0.48200000,0.08200000
164986,-0.44600000,0.07950000
164987,-0.40200000,0.07650000
164988,-0.35000000,0.07100000
164989,-0.28400000,0.06700000
164990,-0.20800000,0.06000000
164991,-0.12600000,0.05050000
164992,-0.04000000,0.03800000
164993,0.04800000,0.02800000
164994,0.13400000,0.02450000
164995,0.21600000,0.02200000
164996,0.29000000,0.02000000
164997,0.35000000,0.01800000
164998,0.39800000,0.02100000
164999,0.43200000,0.02200000
165000,0.45000000,0.02200000
165001,0.45400000,0.02550000
165002,0.44400000,0.03250000
165003,0.42000000,0.05250000
165004,0.38200000,0.07800000
165005,0.33200000,0.10300000
165006,0.27400000,0.12500000
165007,0.20600000,0.13950000
165008,0.13200000,0.14000000
165009,0.05800000,0.12700000
165010,-0.01800000,0.10100000
165011,-0.09200000,0.06950000
165012,-0.15600000,0.04550000
165013,-0.21600000,0.02950000
165014,-0.26400000,0.02000000
165015,-0.29800000,0.01400000
165016,-0.32400000,0.00900000
165017,-0.33800000,0.00650000
165018,-0.34200000,0.00700000
165019,-0.33800000,0.00700000
165020,-0.32600000,0.00500000
165021,-0.31000000,0.00150000
165022,-0.29000000,0.00200000
165023,-0.27600000,0.00450000
165024,-0.25400000,0.01100000
165025,-0.24400000,0.02050000
165026,-0.23600000,0.01500000
165027,-0.23400000,-0.02650000
165028,-0.23600000,-0.09150000
165029,-0.24000000,-0.15800000
165030,-0.25000000,-0.20900000
165031,-0.26200000,-0.23500000
165032,-0.28000000,-0.23850000
165033,-0.29800000,-0.20600000
165034,-0.31600000,-0.13500000
165035,-0.33800000,-0.05200000
165036,-0.36000000,0.00750000
165037,-0.38200000,0.03000000
165038,-0.40200000,0.03600000
165039,-0.42600000,0.04200000
165040,-0.44600000,0.05000000
165041,-0.46600000,0.04950000
165042,-0.48600000,0.04850000
165043,-0.50400000,0.04700000
165044,-0.52000000,0.04700000
165045,-0.53400000,0.04700000
165046,-0.54800000,0.04700000
165047,-0.55800000,0.05250000
165048,-0.56600000,0.05800000
165049,-0.57400000,0.05800000
165050,-0.57600000,0.05800000
165051,-0.57800000,0.05800000
165052,-0.57400000,0.05950000
165053,-0.57000000,0.06150000
165054,-0.56000000,0.06350000
165055,-0.54800000,0.06550000
165056,-0.53200000,0.06600000
165057,-0.50600000,0.06500000
165058,-0.47200000,0.06350000
165059,-0.43000000,0.06200000
165060,-0.37800000,0.05650000
165061,-0.31600000,0.04700000
165062,-0.24400000,0.03600000
165063,-0.16200000,0.03000000
165064,-0.07800000,0.02350000
165065,0.01600000,0.01600000
165066,0.10400000,0.01050000
165067,0.18800000,0.01250000
165068,0.26600000,0.01450000
165069,0.33400000,0.01350000
165070,0.39200000,0.01100000
165071,0.43600000,0.01400000
165072,0.46400000,0.01400000
165073,0.47600000,0.01550000
165074,0.47400000,0.02000000
165075,0.45600000,0.02950000
165076,0.42600000,0.05200000
165077,0.38200000,0.07800000
165078,0.32800000,0.10500000
165079,0.26600000,0.13050000
165080,0.19800000,0.14100000
165081,0.12200000,0.13150000
165082,0.04800000,0.10950000
165083,-0.02400000,0.08000000
165084,-0.09200000,0.05150000
165085,-0.15600000,0.02950000
165086,-0.20800000,0.01750000
165087,-0.24800000,0.00900000
165088,-0.26800000,0.00450000
165089,-0.28350000,0.00300000
165090,-0.29150000,0.00100000
165091,-0.28950000,0.00100000
165092,-0.27950000,0.00300000
165093,-0.26600000,-0.00200000
165094,-0.24800000,-0.00500000
165095,-0.23200000,0.00000000
165096,-0.21600000,0.00200000
165097,-0.20050000,0.01000000
165098,-0.19250000,0.01550000
165099,-0.18850000,-0.01000000
165100,-0.18850000,-0.06700000
165101,-0.19050000,-0.12550000
165102,-0.19850000,-0.18100000
165103,-0.21050000,-0.21850000
165104,-0.22400000,-0.23550000
165105,-0.24400000,-0.22850000
165106,-0.26200000,-0.18100000
165107,-0.28150000,-0.10250000
165108,-0.30550000,-0.02950000
165109,-0.32550000,0.01350000
165110,-0.34700000,0.03250000
165111,-0.37300000,0.04300000
165112,-0.39500000,0.04650000
165113,-0.41450000,0.04700000
165114,-0.43450000,0.04850000
165115,-0.45250000,0.05300000
165116,-0.47000000,0.05450000
165117,-0.48600000,0.04950000
165118,-0.50000000,0.04400000
165119,-0.51000000,0.04700000
165120,-0.51800000,0.05050000
165121,-0.52600000,0.05100000
165122,-0.52800000,0.05400000
165123,-0.53000000,0.05850000
165124,-0.52800000,0.06650000
165125,-0.52400000,0.06900000
165126,-0.51800000,0.06550000
165127,-0.50800000,0.06650000
165128,-0.49000000,0.06900000
165129,-0.47200000,0.06750000
165130,-0.44450000,0.06500000
165131,-0.41050000,0.06300000
165132,-0.36300000,0.06000000
165133,-0.31150000,0.05650000
165134,-0.24600000,0.05250000
165135,-0.16850000,0.04350000
165136,-0.08900000,0.03250000
165137,-0.00200000,0.02500000
165138,0.08750000,0.02150000
165139,0.17250000,0.01800000
165140,0.25400000,0.01450000
165141,0.32550000,0.01400000
165142,0.38700000,0.01400000
165143,0.43650000,0.01400000
165144,0.46850000,0.01550000
165145,0.49000000,0.01850000
165146,0.49200000,0.02150000
165147,0.48450000,0.03100000
165148,0.46250000,0.05250000
165149,0.42450000,0.07600000
165150,0.37900000,0.10000000
165151,0.31950000,0.12400000
165152,0.25400000,0.13650000
165153,0.18050000,0.13100000
165154,0.10900000,0.11100000
165155,0.03600000,0.08450000
165156,-0.03550000,0.05850000
165157,-0.10100000,0.03650000
165158,-0.15650000,0.02700000
165159,-0.20650000,0.02000000
165160,-0.23800000,0.01400000
165161,-0.26200000,0.01050000
165162,-0.27400000,0.00700000
165163,-0.27400000,0.00650000
165164,-0.26800000,0.00650000
165165,-0.25600000,0.00350000
165166,-0.23600000,0.00250000
165167,-0.21800000,0.00150000
165168,-0.20050000,0.00450000
165169,-0.18450000,0.01450000
165170,-0.17450000,0.02200000
165171,-0.16650000,-0.00050000
165172,-0.16250000,-0.05200000
165173,-0.16650000,-0.10800000
165174,-0.17250000,-0.16500000
165175,-0.18250000,-0.21100000
165176,-0.19650000,-0.23650000
165177,-0.21250000,-0.23250000
165178,-0.23400000,-0.18300000
165179,-0.25200000,-0.10100000
165180,-0.27600000,-0.02350000
165181,-0.29950000,0.02050000
165182,-0.32150000,0.03950000
165183,-0.34500000,0.04850000
165184,-0.36900000,0.05350000
165185,-0.39300000,0.05800000
165186,-0.41250000,0.05650000
165187,-0.43250000,0.05800000
165188,-0.45450000,0.06400000
165189,-0.46800000,0.06250000
165190,-0.48200000,0.06350000
165191,-0.49200000,0.06550000
165192,-0.50200000,0.06450000
165193,-0.50800000,0.06200000
165194,-0.51200000,0.06350000
165195,-0.51400000,0.06550000
165196,-0.51400000,0.06500000
165197,-0.50800000,0.06650000
165198,-0.50200000,0.07050000
165199,-0.49200000,0.07300000
165200,-0.47800000,0.07250000
165201,-0.45850000,0.06900000
165202,-0.43050000,0.06900000
165203,-0.39500000,0.07000000
165204,-0.35300000,0.06900000
165205,-0.29750000,0.06350000
165206,-0.23600000,0.05600000
165207,-0.16250000,0.04850000
165208,-0.08350000,0.03700000
165209,0.00400000,0.02700000
165210,0.08950000,0.02150000
165211,0.17650000,0.01800000
165212,0.25800000,0.01750000
165213,0.33350000,0.01450000
165214,0.39500000,0.01400000
165215,0.44450000,0.01400000
165216,0.49100000,0.01400000
165217,0.51100000,0.01750000
165218,0.51900000,0.02300000
165219,0.50900000,0.03500000
165220,0.48700000,0.06000000
165221,0.44950000,0.08300000
165222,0.40350000,0.10350000
165223,0.34600000,0.12650000
165224,0.27850000,0.13950000
165225,0.20850000,0.13800000
165226,0.13300000,0.11850000
165227,0.05550000,0.09100000
165228,-0.01800000,0.06250000
165229,-0.08350000,0.04000000
165230,-0.14100000,0.02700000
165231,-0.18900000,0.02050000
165232,-0.22300000,0.01600000
165233,-0.24850000,0.01250000
165234,-0.25850000,0.00850000
165235,-0.25850000,0.00500000
165236,-0.25250000,0.00300000
165237,-0.23850000,0.00400000
165238,-0.21900000,0.00550000
165239,-0.19900000,0.00500000
165240,-0.18300000,0.00850000
165241,-0.16300000,0.01600000
165242,-0.15100000,0.02000000
165243,-0.14300000,-0.00450000
165244,-0.14100000,-0.05950000
165245,-0.14300000,-0.11750000
165246,-0.14700000,-0.16800000
165247,-0.16100000,-0.20800000
165248,-0.17500000,-0.23250000
165249,-0.19300000,-0.23050000
165250,-0.21100000,-0.18100000
165251,-0.23650000,-0.09900000
165252,-0.25850000,-0.02250000
165253,-0.28650000,0.01950000
165254,-0.31000000,0.03950000
165255,-0.33400000,0.05250000
165256,-0.36000000,0.05850000
165257,-0.38400000,0.06100000
165258,-0.40350000,0.06200000
165259,-0.42350000,0.06350000
165260,-0.44350000,0.06150000
165261,-0.45750000,0.06050000
165262,-0.47150000,0.06200000
165263,-0.48300000,0.06500000
165264,-0.48900000,0.06500000
165265,-0.49500000,0.06300000
165266,-0.49900000,0.06200000
165267,-0.49900000,0.06400000
165268,-0.49700000,0.06900000
165269,-0.49300000,0.06850000
165270,-0.48300000,0.06600000
165271,-0.47350000,0.06850000
165272,-0.45750000,0.07250000
165273,-0.43550000,0.07400000
165274,-0.40950000,0.07500000
165275,-0.37200000,0.07300000
165276,-0.32600000,0.07050000
165277,-0.27250000,0.06900000
165278,-0.20700000,0.06250000
165279,-0.13150000,0.05450000
165280,-0.03600000,0.04550000
165281,0.04950000,0.03800000
165282,0.13700000,0.03100000
165283,0.22700000,0.02700000
165284,0.30850000,0.02350000
165285,0.38400000,0.02350000
165286,0.44600000,0.02700000
165287,0.49600000,0.03050000
165288,0.53150000,0.03250000
165289,0.55150000,0.03200000
165290,0.55750000,0.03500000
165291,0.54750000,0.04950000
165292,0.52550000,0.07400000
165293,0.48800000,0.10000000
165294,0.44000000,0.12650000
165295,0.38250000,0.14850000
165296,0.31250000,0.15450000
165297,0.24300000,0.14750000
165298,0.16500000,0.13250000
165299,0.08950000,0.10800000
165300,0.01550000,0.08300000
165301,-0.04800000,0.06250000
165302,-0.11000000,0.05100000
165303,-0.15550000,0.04150000
165304,-0.19150000,0.03750000
165305,-0.21350000,0.03100000
165306,-0.22750000,0.02900000
165307,-0.22950000,0.03200000
165308,-0.21950000,0.03250000
165309,-0.20750000,0.03200000
165310,-0.18950000,0.03150000
165311,-0.16950000,0.03300000
165312,-0.15350000,0.03950000
165313,-0.13550000,0.05550000
165314,-0.12400000,0.06200000
165315,-0.11600000,0.02900000
165316,-0.11400000,-0.03400000
165317,-0.11400000,-0.10000000
165318,-0.12200000,-0.16100000
165319,-0.13150000,-0.19500000
165320,-0.14550000,-0.20600000
165321,-0.16150000,-0.18400000
165322,-0.17950000,-0.11400000
165323,-0.20150000,-0.02650000
165324,-0.22550000,0.03900000
165325,-0.24950000,0.07450000
165326,-0.27100000,0.09250000
165327,-0.29700000,0.10200000
165328,-0.31900000,0.10400000
165329,-0.34100000,0.10550000
165330,-0.36300000,0.10900000
165331,-0.38100000,0.11050000
165332,-0.39850000,0.11450000
165333,-0.41450000,0.11400000
165334,-0.42850000,0.11650000
165335,-0.43850000,0.12200000
165336,-0.44650000,0.12200000
165337,-0.45450000,0.12200000
165338,-0.45850000,0.12650000
165339,-0.45850000,0.13050000
165340,-0.45650000,0.12900000
165341,-0.45450000,0.12750000
165342,-0.44650000,0.12800000
165343,-0.43450000,0.13200000
165344,-0.42050000,0.13550000
165345,-0.39850000,0.13650000
165346,-0.36900000,0.13800000
165347,-0.32950000,0.13850000
165348,-0.27850000,0.13150000
165349,-0.21900000,0.12000000
165350,-0.15000000,0.10850000
165351,-0.06900000,0.10300000
165352,0.01550000,0.09650000
165353,0.10650000,0.08400000
165354,0.19700000,0.07400000
165355,0.28200000,0.06900000
165356,0.36500000,0.06700000
165357,0.43600000,0.06350000
165358,0.49500000,0.06200000
165359,0.54450000,0.06650000
165360,0.57400000,0.07100000
165361,0.58950000,0.07450000
165362,0.58950000,0.08400000
165363,0.57600000,0.10500000
165364,0.54650000,0.13250000
165365,0.50700000,0.15450000
165366,0.45550000,0.17300000
165367,0.39450000,0.18550000
165368,0.32750000,0.18350000
165369,0.25450000,0.17150000
165370,0.17750000,0.14950000
165371,0.10650000,0.12100000
165372,0.03550000,0.09550000
165373,-0.02950000,0.07650000
165374,-0.08500000,0.06700000
165375,-0.12850000,0.06150000
165376,-0.16000000,0.05850000
165377,-0.18150000,0.05750000
165378,-0.19350000,0.05300000
165379,-0.19150000,0.05050000
165380,-0.18550000,0.05100000
165381,-0.17350000,0.05050000
165382,-0.15600000,0.04750000
165383,-0.14000000,0.05100000
165384,-0.12450000,0.06550000
165385,-0.11250000,0.08200000
165386,-0.10450000,0.06450000
165387,-0.09700000,0.00800000
165388,-0.09900000,-0.06550000
165389,-0.10050000,-0.13850000
165390,-0.11050000,-0.18700000
165391,-0.12250000,-0.19900000
165392,-0.13800000,-0.18750000
165393,-0.15400000,-0.13850000
165394,-0.17350000,-0.05550000
165395,-0.19350000,0.01650000
165396,-0.21700000,0.06550000
165397,-0.24100000,0.09250000
165398,-0.26050000,0.10400000
165399,-0.28600000,0.10750000
165400,-0.30800000,0.10950000
165401,-0.32750000,0.10700000
165402,-0.34750000,0.10600000
165403,-0.36500000,0.10900000
165404,-0.38300000,0.10900000
165405,-0.39650000,0.10900000
165406,-0.41050000,0.10950000
165407,-0.42250000,0.11600000
165408,-0.45400000,0.11850000
165409,-0.46000000,0.11700000
165410,-0.46200000,0.11700000
165411,-0.46400000,0.11850000
165412,-0.46400000,0.11450000
165413,-0.45800000,0.10750000
165414,-0.44800000,0.10350000
165415,-0.43450000,0.10700000
165416,-0.41450000,0.10900000
165417,-0.38700000,0.10600000
165418,-0.35200000,0.10550000
165419,-0.30650000,0.10050000
165420,-0.24950000,0.09050000
165421,-0.18300000,0.07800000
165422,-0.10800000,0.06750000
165423,-0.02550000,0.05850000
165424,0.06450000,0.04750000
165425,0.15100000,0.03550000
165426,0.23950000,0.02900000
165427,0.32200000,0.02550000
165428,0.39500000,0.02500000
165429,0.45750000,0.02500000
165430,0.50500000,0.02500000
165431,0.53850000,0.02650000
165432,0.56000000,0.02850000
165433,0.56200000,0.03100000
165434,0.55200000,0.04000000
165435,0.52450000,0.06000000
165436,0.48700000,0.08450000
165437,0.43800000,0.10900000
165438,0.37500000,0.13050000
165439,0.30850000,0.14300000
165440,0.23350000,0.13850000
165441,0.15700000,0.11400000
165442,0.07850000,0.08250000
165443,0.00400000,0.05300000
165444,-0.06500000,0.03300000
165445,-0.12600000,0.02000000
165446,-0.17500000,0.01350000
165447,-0.21450000,0.00700000
165448,-0.24200000,0.00300000
165449,-0.25750000,0.00100000
165450,-0.26550000,0.00000000
165451,-0.26150000,-0.00150000
165452,-0.25150000,-0.00350000
165453,-0.24000000,-0.00250000
165454,-0.22800000,-0.00900000
165455,-0.21050000,-0.01350000
165456,-0.20250000,-0.00300000
165457,-0.19250000,0.00950000
165458,-0.18850000,-0.01000000
165459,-0.19050000,-0.07400000
165460,-0.19650000,-0.14900000
165461,-0.20450000,-0.21600000
165462,-0.21800000,-0.26000000
165463,-0.23200000,-0.27550000
165464,-0.25150000,-0.25700000
165465,-0.27300000,-0.20500000
165466,-0.29700000,-0.12250000
165467,-0.32050000,-0.04250000
165468,-0.34400000,0.00600000
165469,-0.36550000,0.02300000
165470,-0.38900000,0.02900000
165471,-0.41450000,0.03700000
165472,-0.45300000,0.04400000
165473,-0.47450000,0.04600000
165474,-0.49400000,0.04150000
165475,-0.51350000,0.03600000
165476,-0.52750000,0.03800000
165477,-0.54500000,0.04100000
165478,-0.55650000,0.04000000
165479,-0.56650000,0.03650000
165480,-0.57400000,0.03800000
165481,-0.58000000,0.03600000
165482,-0.58400000,0.03600000
165483,-0.58600000,0.04100000
165484,-0.58400000,0.04350000
165485,-0.58000000,0.04350000
165486,-0.57050000,0.04250000
165487,-0.55450000,0.04700000
165488,-0.53500000,0.05050000
165489,-0.51150000,0.04900000
165490,-0.47250000,0.04200000
165491,-0.42950000,0.03550000
165492,-0.37300000,0.02900000
165493,-0.30650000,0.02350000
165494,-0.22850000,0.01600000
165495,-0.14650000,0.00850000
165496,-0.06050000,0.00300000
165497,0.02950000,-0.00200000
165498,0.11700000,-0.00950000
165499,0.19900000,-0.01750000
165500,0.26950000,-0.01900000
165501,0.33000000,-0.01900000
165502,0.38100000,-0.01850000
165503,0.41400000,-0.01550000
165504,0.42950000,-0.01150000
165505,0.43550000,-0.01250000
165506,0.42200000,-0.00400000
165507,0.39650000,0.01200000
165508,0.35950000,0.02900000
165509,0.31250000,0.05050000
165510,0.25200000,0.07400000
165511,0.18550000,0.09200000
165512,0.11350000,0.09550000
165513,0.03500000,0.08150000
165514,-0.03700000,0.05650000
165515,-0.11150000,0.03150000
165516,-0.17600000,0.01100000
165517,-0.23450000,-0.00400000
165518,-0.28150000,-0.02000000
165519,-0.31850000,-0.02900000
165520,-0.34200000,-0.03350000
165521,-0.35550000,-0.03600000
165522,-0.35750000,-0.03700000
165523,-0.35150000,-0.04000000
165524,-0.34200000,-0.04000000
165525,-0.33000000,-0.04000000
165526,-0.31450000,-0.04500000
165527,-0.30100000,-0.04550000
165528,-0.28900000,-0.03650000
165529,-0.27750000,-0.02300000
165530,-0.27150000,-0.02300000
165531,-0.26950000,-0.06350000
165532,-0.27350000,-0.12050000
165533,-0.27950000,-0.17500000
165534,-0.28900000,-0.22550000
165535,-0.30450000,-0.26100000
165536,-0.30600000,-0.27150000
165537,-0.32350000,-0.24450000
165538,-0.34500000,-0.17650000
165539,-0.36650000,-0.09150000
165540,-0.38600000,-0.02500000
165541,-0.40950000,0.01100000
165542,-0.43100000,0.02300000
165543,-0.45250000,0.02700000
165544,-0.47200000,0.03000000
165545,-0.49150000,0.02950000
165546,-0.51100000,0.02900000
165547,-0.52850000,0.03250000
165548,-0.54600000,0.03550000
165549,-0.55750000,0.03550000
165550,-0.56900000,0.03400000
165551,-0.57900000,0.03250000
165552,-0.58700000,0.03200000
165553,-0.59250000,0.03450000
165554,-0.59450000,0.03950000
165555,-0.59650000,0.04250000
165556,-0.59250000,0.04050000
165557,-0.58700000,0.04100000
165558,-0.58100000,0.04550000
165559,-0.56900000,0.04700000
165560,-0.55150000,0.04700000
165561,-0.52650000,0.04650000
165562,-0.49500000,0.04200000
165563,-0.45400000,0.03900000
165564,-0.40750000,0.03650000
165565,-0.34500000,0.03250000
165566,-0.27500000,0.02700000
165567,-0.19300000,0.02150000
165568,-0.11100000,0.01750000
165569,-0.02150000,0.01100000
165570,0.06800000,0.00550000
165571,0.15600000,0.00300000
165572,0.23600000,0.00300000
165573,0.30600000,0.00300000
165574,0.36250000,0.00300000
165575,0.40750000,0.00300000
165576,0.43650000,0.00650000
165577,0.45400000,0.00850000
165578,0.45200000,0.01250000
165579,0.43850000,0.02400000
165580,0.40950000,0.04600000
165581,0.36850000,0.06850000
165582,0.31750000,0.09100000
165583,0.25700000,0.11350000
165584,0.18900000,0.12000000
165585,0.11300000,0.10600000
165586,0.03900000,0.08500000
165587,-0.03300000,0.05550000
165588,-0.10350000,0.02800000
165589,-0.16750000,0.01350000
165590,-0.21850000,0.00150000
165591,-0.26150000,-0.00500000
165592,-0.29450000,-0.01000000
165593,-0.31200000,-0.01900000
165594,-0.32150000,-0.02450000
165595,-0.31950000,-0.02600000
165596,-0.31000000,-0.02600000
165597,-0.29650000,-0.02900000
165598,-0.28100000,-0.02950000
165599,-0.26500000,-0.02600000
165600,-0.23200000,-0.02150000
165601,-0.22050000,-0.00850000
165602,-0.20850000,-0.00200000
165603,-0.20300000,-0.03450000
165604,-0.20300000,-0.09450000
165605,-0.20700000,-0.15300000
165606,-0.21450000,-0.20750000
165607,-0.22600000,-0.24650000
165608,-0.23750000,-0.26550000
165609,-0.25300000,-0.25400000
165610,-0.27250000,-0.19500000
165611,-0.29200000,-0.11050000
165612,-0.31300000,-0.03800000
165613,-0.33650000,0.00550000
165614,-0.35750000,0.02150000
165615,-0.37900000,0.02700000
165616,-0.40200000,0.02850000
165617,-0.42350000,0.02900000
165618,-0.44250000,0.02900000
165619,-0.46200000,0.03250000
165620,-0.47750000,0.03500000
165621,-0.49100000,0.03250000
165622,-0.50250000,0.03200000
165623,-0.51400000,0.03300000
165624,-0.52000000,0.03500000
165625,-0.52600000,0.03600000
165626,-0.52950000,0.03450000
165627,-0.53150000,0.03550000
165628,-0.52750000,0.04050000
165629,-0.52400000,0.04200000
165630,-0.51800000,0.04050000
165631,-0.50650000,0.04100000
165632,-0.49100000,0.04350000
165633,-0.46950000,0.04400000
165634,-0.44050000,0.04350000
165635,-0.40600000,0.04050000
165636,-0.36150000,0.03400000
165637,-0.30550000,0.02750000
165638,-0.24150000,0.02300000
165639,-0.16600000,0.01800000
165640,-0.08700000,0.01250000
165641,-0.00200000,0.00650000
165642,0.08150000,0.00300000
165643,0.16850000,-0.00050000
165644,0.24400000,-0.00300000
165645,0.31550000,-0.00400000
165646,0.37700000,-0.00350000
165647,0.42150000,-0.00050000
165648,0.45450000,0.00000000
165649,0.47400000,0.00150000
165650,0.47400000,0.00500000
165651,0.46400000,0.01450000
165652,0.43900000,0.02750000
165653,0.40250000,0.04850000
165654,0.35400000,0.07050000
165655,0.29600000,0.09200000
165656,0.23000000,0.10650000
165657,0.15850000,0.10350000
165658,0.08500000,0.08700000
165659,0.01150000,0.06250000
165660,-0.05600000,0.03450000
165661,-0.12150000,0.01400000
165662,-0.17600000,0.00200000
165663,-0.22050000,-0.00500000
165664,-0.23800000,-0.00950000
165665,-0.25950000,-0.01500000
165666,-0.26750000,-0.01800000
165667,-0.26750000,-0.02050000
165668,-0.26150000,-0.02200000
165669,-0.24800000,-0.02200000
165670,-0.22850000,-0.02550000
165671,-0.21100000,-0.02600000
165672,-0.19500000,-0.02550000
165673,-0.18150000,-0.01700000
165674,-0.17000000,-0.00150000
165675,-0.16200000,-0.00900000
165676,-0.16000000,-0.05750000
165677,-0.16200000,-0.11800000
165678,-0.17000000,-0.16900000
165679,-0.17750000,-0.21700000
165680,-0.19350000,-0.25550000
165681,-0.20900000,-0.26700000
165682,-0.22650000,-0.23250000
165683,-0.24800000,-0.15500000
165684,-0.26950000,-0.07150000
165685,-0.29300000,-0.01200000
165686,-0.31450000,0.01550000
165687,-0.33600000,0.02400000
165688,-0.35950000,0.02700000
165689,-0.37900000,0.02900000
165690,-0.39850000,0.03200000
165691,-0.42000000,0.03300000
165692,-0.43550000,0.03500000
165693,-0.45100000,0.03600000
165694,-0.46300000,0.03600000
165695,-0.47250000,0.03800000
165696,-0.48050000,0.04150000
165697,-0.48450000,0.04200000
165698,-0.49000000,0.04000000
165699,-0.49000000,0.04300000
165700,-0.49000000,0.04800000
165701,-0.48650000,0.04950000
165702,-0.47650000,0.05250000
165703,-0.46650000,0.05650000
165704,-0.45500000,0.06150000
165705,-0.43750000,0.06200000
165706,-0.41200000,0.06200000
165707,-0.37900000,0.06000000
165708,-0.33800000,0.05700000
165709,-0.28700000,0.05100000
165710,-0.22450000,0.04550000
165711,-0.15250000,0.03800000
165712,-0.07000000,0.03050000
165713,0.01350000,0.02400000
165714,0.10150000,0.01900000
165715,0.18950000,0.01450000
165716,0.27150000,0.01350000
165717,0.34750000,0.01050000
165718,0.41600000,0.01050000
165719,0.46900000,0.01250000
165720,0.51000000,0.01450000
165721,0.53500000,0.01400000
165722,0.54300000,0.01550000
165723,0.54100000,0.01850000
165724,0.52150000,0.02550000
165725,0.48850000,0.04800000
165726,0.44550000,0.07250000
165727,0.39050000,0.09950000
165728,0.32450000,0.11950000
165729,0.25400000,0.12700000
165730,0.18150000,0.12150000
165731,0.10750000,0.10250000
165732,0.03350000,0.07500000
165733,-0.03300000,0.04550000
165734,-0.09550000,0.02550000
165735,-0.14450000,0.01300000
165736,-0.18350000,0.00600000
165737,-0.21100000,0.00000000
165738,-0.22850000,-0.00350000
165739,-0.23450000,-0.00400000
165740,-0.22650000,-0.00550000
165741,-0.21650000,-0.00750000
165742,-0.20300000,-0.00850000
165743,-0.18750000,-0.01250000
165744,-0.17000000,-0.01150000
165745,-0.15400000,-0.00700000
165746,-0.14250000,0.00100000
165747,-0.13650000,0.00650000
165748,-0.13100000,-0.01850000
165749,-0.13100000,-0.06700000
165750,-0.13650000,-0.11900000
