'sample interval','PLETH','II'
'0.008 sec','mV','mV'
112501,-0.59000000,0.62017804
112502,-0.58500000,0.49851632
112503,-0.56100000,0.39317507
112504,-0.53650000,0.27893175
112505,-0.50250000,0.19732938
112506,-0.45850000,0.13204748
112507,-0.41450000,0.09050445
112508,-0.35100000,0.04154303
112509,-0.29250000,0.03412463
112510,-0.23400000,0.00296736
112511,-0.17550000,0.00296736
112512,-0.12700000,0.00296736
112513,-0.08800000,-0.02077151
112514,-0.05850000,0.00296736
112515,-0.03900000,-0.02077151
112516,-0.03900000,-0.02077151
112517,-0.04900000,-0.01335312
112518,-0.07350000,-0.02967359
112519,-0.10750000,-0.02967359
112520,-0.15150000,-0.02967359
112521,-0.19500000,-0.05341246
112522,-0.24400000,-0.06231454
112523,-0.29250000,-0.06231454
112524,-0.33650000,-0.05341246
112525,-0.38550000,-0.03709199
112526,-0.42450000,-0.02967359
112527,-0.45850000,-0.04599407
112528,-0.48750000,-0.01335312
112529,-0.51200000,-0.01335312
112530,-0.52200000,-0.05341246
112531,-0.53150000,-0.02967359
112532,-0.54150000,-0.02967359
112533,-0.53650000,-0.00445104
112534,-0.53150000,-0.06231454
112535,-0.52650000,-0.04599407
112536,-0.51700000,-0.02967359
112537,-0.50700000,-0.02967359
112538,-0.49750000,-0.06231454
112539,-0.49250000,-0.02967359
112540,-0.47800000,0.03412463
112541,-0.46800000,0.36795252
112542,-0.45850000,0.66023739
112543,-0.44850000,0.30267062
112544,-0.44850000,0.02670623
112545,-0.43900000,-0.16765579
112546,-0.43400000,-0.20029674
112547,-0.43400000,-0.07863501
112548,-0.42450000,0.00296736
112549,-0.42900000,-0.02967359
112550,-0.42900000,-0.06231454
112551,-0.42900000,-0.04599407
112552,-0.43400000,-0.05341246
112553,-0.43400000,-0.05341246
112554,-0.43400000,-0.06231454
112555,-0.43900000,-0.08605341
112556,-0.43900000,-0.10237389
112557,-0.43900000,-0.15133531
112558,-0.44850000,-0.14391691
112559,-0.44850000,-0.10237389
112560,-0.44850000,-0.02967359
112561,-0.45850000,0.00296736
112562,-0.45850000,0.00296736
112563,-0.45850000,0.06676558
112564,-0.45350000,0.12314540
112565,-0.45850000,0.14836795
112566,-0.45350000,0.18842730
112567,-0.45350000,0.22997033
112568,-0.44400000,0.26261128
112569,-0.42900000,0.26261128
112570,-0.40500000,0.26261128
112571,-0.36600000,0.23738872
112572,-0.31200000,0.19732938
112573,-0.24900000,0.13204748
112574,-0.16100000,0.06676558
112575,-0.06850000,0.01780415
112576,0.04350000,0.00296736
112577,0.14600000,0.00296736
112578,0.25800000,0.00296736
112579,0.36050000,0.00296736
112580,0.44350000,0.00296736
112581,0.51150000,0.00296736
112582,0.56550000,0.00296736
112583,0.59450000,0.00296736
112584,0.61400000,0.00296736
112585,0.61400000,0.00296736
112586,0.59950000,0.00296736
112587,0.58000000,0.00296736
112588,0.55050000,0.00296736
112589,0.51150000,-0.02077151
112590,0.47250000,-0.02967359
112591,0.43350000,-0.02967359
112592,0.39000000,-0.05341246
112593,0.33150000,-0.04599407
112594,0.27750000,-0.03709199
112595,0.22400000,-0.01335312
112596,0.16550000,0.00296736
112597,0.10700000,0.00296736
112598,0.05350000,0.00296736
112599,-0.00500000,0.00296736
112600,-0.05400000,0.00296736
112601,-0.09750000,0.00296736
112602,-0.13200000,0.00296736
112603,-0.15600000,0.00296736
112604,-0.18550000,0.00296736
112605,-0.19500000,-0.02967359
112606,-0.21450000,-0.02967359
112607,-0.21950000,-0.02967359
112608,-0.21450000,-0.02967359
112609,-0.21950000,-0.02967359
112610,-0.22450000,-0.02967359
112611,-0.22450000,-0.02967359
112612,-0.22450000,-0.02967359
112613,-0.22450000,0.00296736
112614,-0.22450000,0.00296736
112615,-0.22950000,0.00296736
112616,-0.23400000,0.01038576
112617,-0.23900000,0.00296736
112618,-0.24400000,0.01780415
112619,-0.25850000,0.00296736
112620,-0.25850000,0.00296736
112621,-0.27300000,0.00296736
112622,-0.28300000,0.03412463
112623,-0.29250000,0.25370920
112624,-0.30250000,0.57863501
112625,-0.31200000,0.35905045
112626,-0.32700000,-0.01335312
112627,-0.33150000,-0.16023739
112628,-0.34650000,-0.16023739
112629,-0.35600000,-0.03709199
112630,-0.36100000,-0.01335312
112631,-0.37550000,0.00296736
112632,-0.38550000,-0.01335312
112633,-0.39000000,-0.02967359
112634,-0.40500000,-0.02967359
112635,-0.40950000,-0.02967359
112636,-0.41450000,-0.02967359
112637,-0.41950000,0.00296736
112638,-0.42900000,0.00296736
112639,-0.42450000,0.00296736
112640,-0.43400000,0.00296736
112641,-0.43400000,0.01780415
112642,-0.43900000,0.03412463
112643,-0.43400000,0.04154303
112644,-0.43900000,0.06676558
112645,-0.44400000,0.11572700
112646,-0.43400000,0.15578635
112647,-0.43400000,0.20474777
112648,-0.42900000,0.22997033
112649,-0.42450000,0.23738872
112650,-0.41450000,0.29525223
112651,-0.39000000,0.31899110
112652,-0.35600000,0.32789318
112653,-0.30750000,0.31899110
112654,-0.23900000,0.28635015
112655,-0.16100000,0.23738872
112656,-0.06850000,0.19732938
112657,0.03900000,0.11572700
112658,0.14100000,0.09050445
112659,0.25350000,0.06676558
112660,0.35100000,0.05786350
112661,0.43350000,0.03412463
112662,0.50200000,0.03412463
112663,0.54600000,0.03412463
112664,0.58500000,0.03412463
112665,0.58950000,0.01038576
112666,0.58500000,0.00296736
112667,0.57000000,0.00296736
112668,0.55050000,0.00296736
112669,0.52150000,0.00296736
112670,0.48250000,0.00296736
112671,0.43850000,0.00296736
112672,0.39950000,0.01038576
112673,0.35550000,0.03412463
112674,0.30700000,0.03412463
112675,0.25350000,0.03412463
112676,0.19950000,0.03412463
112677,0.14600000,0.03412463
112678,0.09250000,0.03412463
112679,0.03900000,0.03412463
112680,-0.01950000,0.05044510
112681,-0.07350000,0.06676558
112682,-0.12700000,0.06676558
112683,-0.17100000,0.05044510
112684,-0.20500000,0.03412463
112685,-0.23900000,0.01038576
112686,-0.27300000,0.00296736
112687,-0.29250000,0.03412463
112688,-0.30750000,0.03412463
112689,-0.31700000,0.00296736
112690,-0.32200000,0.01038576
112691,-0.33150000,0.03412463
112692,-0.33150000,0.03412463
112693,-0.33650000,0.03412463
112694,-0.33150000,0.01780415
112695,-0.33150000,0.00296736
112696,-0.34150000,0.00296736
112697,-0.34650000,0.00296736
112698,-0.35100000,0.01038576
112699,-0.35600000,0.01038576
112700,-0.36600000,0.00296736
112701,-0.37050000,0.00296736
112702,-0.38550000,0.00296736
112703,-0.39500000,0.02522255
112704,-0.40950000,0.05044510
112705,-0.41950000,0.15578635
112706,-0.43400000,0.42433234
112707,-0.44850000,0.69287834
112708,-0.46350000,0.27002967
112709,-0.47300000,-0.06973294
112710,-0.48750000,-0.20919881
112711,-0.49750000,-0.09495549
112712,-0.51200000,-0.00445104
112713,-0.52200000,-0.02077151
112714,-0.53650000,-0.02967359
112715,-0.55100000,-0.02967359
112716,-0.55100000,-0.01335312
112717,-0.55600000,0.00296736
112718,-0.57050000,0.00296736
112719,-0.57550000,0.00296736
112720,-0.57550000,0.00296736
112721,-0.58050000,0.00296736
112722,-0.58050000,0.03412463
112723,-0.58050000,0.03412463
112724,-0.59000000,0.05044510
112725,-0.59000000,0.06676558
112726,-0.59000000,0.09050445
112727,-0.59000000,0.06676558
112728,-0.59000000,0.08308605
112729,-0.59500000,0.06676558
112730,-0.59500000,0.10682493
112731,-0.59000000,0.19732938
112732,-0.55900000,0.28635015
112733,-0.54550000,0.29525223
112734,-0.53250000,0.31899110
112735,-0.50150000,0.36053412
112736,-0.46150000,0.36053412
112737,-0.39950000,0.33531157
112738,-0.33250000,0.25370920
112739,-0.24400000,0.20474777
112740,-0.15500000,0.17210682
112741,-0.05750000,0.10682493
112742,0.04450000,0.07418398
112743,0.13750000,0.02522255
112744,0.22200000,0.00296736
112745,0.29300000,-0.01335312
112746,0.34200000,0.00296736
112747,0.37300000,0.00296736
112748,0.39500000,0.00296736
112749,0.39500000,0.00296736
112750,0.38600000,0.00296736
112751,0.37300000,0.03412463
112752,0.34600000,0.01780415
112753,0.32400000,0.03412463
112754,0.29300000,0.03412463
112755,0.25750000,0.03412463
112756,0.21750000,0.05786350
112757,0.17750000,0.03412463
112758,0.14200000,0.05786350
112759,0.09350000,0.01038576
112760,0.04900000,0.00296736
112761,0.00000000,0.00296736
112762,-0.05300000,0.00296736
112763,-0.10200000,0.00296736
112764,-0.15500000,0.00296736
112765,-0.20400000,0.00296736
112766,-0.25750000,0.00296736
112767,-0.29700000,0.00296736
112768,-0.33250000,0.00296736
112769,-0.36400000,0.00296736
112770,-0.38600000,0.03412463
112771,-0.40350000,0.03412463
112772,-0.41250000,0.03412463
112773,-0.41700000,0.03412463
112774,-0.41700000,0.03412463
112775,-0.41700000,0.08308605
112776,-0.40800000,0.26261128
112777,-0.40800000,0.67655786
112778,-0.40800000,0.70919881
112779,-0.39950000,0.31157270
112780,-0.39500000,0.07418398
112781,-0.39950000,-0.16023739
112782,-0.39950000,-0.07863501
112783,-0.39950000,-0.00445104
112784,-0.39950000,0.00296736
112785,-0.40350000,-0.02967359
112786,-0.40350000,-0.02967359
112787,-0.41250000,-0.02967359
112788,-0.41700000,-0.02967359
112789,-0.42150000,-0.00445104
112790,-0.43500000,0.00296736
112791,-0.44350000,0.00296736
112792,-0.45250000,0.00296736
112793,-0.46150000,0.00296736
112794,-0.47050000,0.00296736
112795,-0.47450000,0.02522255
112796,-0.47050000,0.03412463
112797,-0.47950000,0.05786350
112798,-0.48850000,0.10682493
112799,-0.49300000,0.13946588
112800,-0.49300000,0.15578635
112801,-0.50150000,0.21364985
112802,-0.49700000,0.22997033
112803,-0.50150000,0.28635015
112804,-0.49300000,0.29525223
112805,-0.48850000,0.30267062
112806,-0.47500000,0.33531157
112807,-0.45750000,0.33531157
112808,-0.42600000,0.24629080
112809,-0.38650000,0.18100890
112810,-0.33300000,0.14836795
112811,-0.26650000,0.07418398
112812,-0.19100000,0.06676558
112813,-0.11100000,0.06676558
112814,-0.02700000,0.03412463
112815,0.05300000,0.02522255
112816,0.13300000,0.03412463
112817,0.19500000,0.01780415
112818,0.24400000,0.00296736
112819,0.27950000,0.00296736
112820,0.30600000,0.00296736
112821,0.31500000,0.00296736
112822,0.31050000,0.01038576
112823,0.29700000,0.03412463
112824,0.27500000,0.03412463
112825,0.25250000,0.03412463
112826,0.21700000,0.03412463
112827,0.18600000,0.03412463
112828,0.14600000,0.06676558
112829,0.11050000,0.04154303
112830,0.06650000,0.03412463
112831,0.01300000,0.03412463
112832,-0.03550000,0.01780415
112833,-0.08000000,0.01038576
112834,-0.12900000,0.01038576
112835,-0.17350000,0.02522255
112836,-0.21750000,0.00296736
112837,-0.25300000,0.00296736
112838,-0.28850000,-0.02077151
112839,-0.31100000,-0.00445104
112840,-0.32850000,0.21364985
112841,-0.33750000,0.66023739
112842,-0.34200000,0.57121662
112843,-0.34650000,0.17210682
112844,-0.34200000,-0.01335312
112845,-0.33750000,-0.02967359
112846,-0.32850000,0.00296736
112847,-0.31950000,0.03412463
112848,-0.31100000,0.03412463
112849,-0.30650000,0.03412463
112850,-0.30200000,0.01038576
112851,-0.30200000,0.00296736
112852,-0.29750000,0.00296736
112853,-0.30200000,0.00296736
112854,-0.30200000,-0.00445104
112855,-0.31100000,-0.02967359
112856,-0.31100000,-0.00445104
112857,-0.31950000,0.00296736
112858,-0.32850000,0.01038576
112859,-0.34200000,0.05044510
112860,-0.35250000,0.07418398
112861,-0.36700000,0.10682493
112862,-0.37200000,0.15578635
112863,-0.38650000,0.19732938
112864,-0.38650000,0.21364985
112865,-0.39100000,0.26261128
112866,-0.40100000,0.31157270
112867,-0.40100000,0.35163205
112868,-0.40100000,0.37685460
112869,-0.39600000,0.38427300
112870,-0.38650000,0.32789318
112871,-0.35750000,0.29525223
112872,-0.32350000,0.23738872
112873,-0.27550000,0.18100890
112874,-0.21250000,0.16468843
112875,-0.14000000,0.13946588
112876,-0.05800000,0.09050445
112877,0.02900000,0.06676558
112878,0.11100000,0.05786350
112879,0.18800000,0.06676558
112880,0.25600000,0.06676558
112881,0.31850000,0.03412463
112882,0.35700000,0.03412463
112883,0.38150000,0.03412463
112884,0.39100000,0.06676558
112885,0.39100000,0.06676558
112886,0.37650000,0.06676558
112887,0.35700000,0.06676558
112888,0.32800000,0.04154303
112889,0.29450000,0.03412463
112890,0.26050000,0.05044510
112891,0.21700000,0.06676558
112892,0.16400000,0.06676558
112893,0.11550000,0.08308605
112894,0.06250000,0.07418398
112895,0.00950000,0.22106825
112896,-0.05300000,0.59495549
112897,-0.10650000,0.46587537
112898,-0.15950000,0.04302671
112899,-0.21750000,-0.10237389
112900,-0.26100000,-0.06973294
112901,-0.29950000,0.01038576
112902,-0.33800000,0.01780415
112903,-0.36200000,0.01038576
112904,-0.37650000,0.00296736
112905,-0.38650000,0.00296736
112906,-0.38650000,0.00296736
112907,-0.38650000,0.00296736
112908,-0.38150000,0.00296736
112909,-0.37650000,0.00296736
112910,-0.37650000,0.00296736
112911,-0.36700000,0.02522255
112912,-0.35750000,0.04154303
112913,-0.35750000,0.07418398
112914,-0.35250000,0.09940653
112915,-0.36200000,0.09940653
112916,-0.36200000,0.14836795
112917,-0.36700000,0.22106825
112918,-0.36700000,0.23738872
112919,-0.38150000,0.24629080
112920,-0.38150000,0.28635015
112921,-0.39600000,0.29525223
112922,-0.40100000,0.30267062
112923,-0.41550000,0.32789318
112924,-0.43950000,0.29525223
112925,-0.43950000,0.27893175
112926,-0.43950000,0.24629080
112927,-0.43950000,0.15578635
112928,-0.41300000,0.13204748
112929,-0.38650000,0.10682493
112930,-0.34950000,0.09940653
112931,-0.30700000,0.06676558
112932,-0.24350000,0.06676558
112933,-0.18550000,0.06676558
112934,-0.12150000,0.09050445
112935,-0.05300000,0.07418398
112936,0.00550000,0.03412463
112937,0.05850000,0.03412463
112938,0.10100000,0.04154303
112939,0.12750000,0.03412463
112940,0.13800000,0.00296736
112941,0.13800000,0.01038576
112942,0.13250000,0.03412463
112943,0.11150000,0.02522255
112944,0.07950000,0.02670623
112945,0.04250000,0.05786350
112946,0.00550000,0.06676558
112947,-0.04750000,0.04154303
112948,-0.10600000,0.05786350
112949,-0.15900000,0.03412463
112950,-0.21150000,0.03412463
112951,-0.27000000,0.02522255
112952,-0.32850000,0.02522255
112953,-0.37050000,0.03412463
112954,-0.41300000,0.01780415
112955,-0.44500000,0.00296736
112956,-0.47650000,0.00296736
112957,-0.49800000,0.00296736
112958,-0.50850000,0.00296736
112959,-0.51350000,0.02522255
112960,-0.50850000,0.04154303
112961,-0.50300000,0.03412463
112962,-0.48700000,0.06676558
112963,-0.48200000,0.06676558
112964,-0.47150000,0.03412463
112965,-0.46050000,0.05786350
112966,-0.45000000,0.05786350
112967,-0.43950000,0.05044510
112968,-0.42350000,0.03412463
112969,-0.41850000,0.01780415
112970,-0.41300000,0.03412463
112971,-0.41300000,0.01038576
112972,-0.40750000,0.00296736
112973,-0.41300000,0.00296736
112974,-0.40750000,0.00296736
112975,-0.41300000,0.00296736
112976,-0.42350000,0.01780415
112977,-0.42350000,0.01780415
112978,-0.42900000,0.00296736
112979,-0.43950000,0.04154303
112980,-0.43950000,0.05786350
112981,-0.45000000,0.05786350
112982,-0.45000000,0.06676558
112983,-0.46050000,0.09940653
112984,-0.46050000,0.19732938
112985,-0.46050000,0.58753709
112986,-0.47150000,0.70919881
112987,-0.47150000,0.22106825
112988,-0.48150000,0.00148368
112989,-0.47550000,-0.19287834
112990,-0.48150000,-0.17655786
112991,-0.48750000,-0.08605341
112992,-0.48150000,-0.04599407
112993,-0.48750000,-0.02967359
112994,-0.48150000,-0.02967359
112995,-0.48150000,0.00296736
112996,-0.48150000,0.00296736
112997,-0.48150000,0.00296736
112998,-0.48150000,0.00296736
112999,-0.48150000,0.00296736
113000,-0.46950000,0.00296736
113001,-0.46300000,0.00296736
113002,-0.45700000,0.00296736
113003,-0.45700000,0.03412463
113004,-0.46300000,0.06676558
113005,-0.45700000,0.06676558
113006,-0.43900000,0.07418398
113007,-0.43300000,0.12314540
113008,-0.43900000,0.16468843
113009,-0.42650000,0.16468843
113010,-0.40850000,0.20474777
113011,-0.38400000,0.24629080
113012,-0.34750000,0.28635015
113013,-0.28050000,0.30267062
113014,-0.19500000,0.32789318
113015,-0.09750000,0.32789318
113016,0.03050000,0.32789318
113017,0.18250000,0.31157270
113018,0.34100000,0.27002967
113019,0.49950000,0.23738872
113020,0.66400000,0.18100890
113021,0.81050000,0.06676558
113022,0.92600000,0.06676558
113023,1.01750000,0.06676558
113024,1.02350000,0.02522255
113025,1.02350000,0.00296736
113026,1.02350000,0.01038576
113027,1.02350000,0.00296736
113028,1.02350000,-0.00445104
113029,1.02350000,-0.02967359
113030,1.02350000,-0.02967359
113031,0.98100000,-0.01335312
113032,0.92600000,0.00296736
113033,0.86500000,0.00296736
113034,0.81050000,0.00296736
113035,0.73700000,0.00296736
113036,0.67000000,0.00296736
113037,0.60300000,0.00296736
113038,0.53000000,0.03412463
113039,0.45100000,0.03412463
113040,0.36550000,0.01038576
113041,0.29250000,0.02522255
113042,0.22550000,0.02522255
113043,0.15200000,0.01038576
113044,0.08500000,0.00296736
113045,0.02450000,0.01038576
113046,-0.02450000,-0.02077151
113047,-0.06700000,-0.06231454
113048,-0.09750000,-0.03709199
113049,-0.11600000,-0.02967359
113050,-0.14050000,-0.01335312
113051,-0.14650000,0.00296736
113052,-0.15250000,0.00296736
113053,-0.15850000,-0.02077151
113054,-0.16450000,-0.02077151
113055,-0.17050000,-0.02967359
113056,-0.18300000,-0.01335312
113057,-0.18900000,0.00296736
113058,-0.19500000,0.00296736
113059,-0.21350000,0.00296736
113060,-0.22550000,-0.01335312
113061,-0.24400000,-0.02967359
113062,-0.25000000,0.00296736
113063,-0.26800000,-0.02077151
113064,-0.29250000,-0.06231454
113065,-0.30500000,-0.04599407
113066,-0.32900000,-0.03709199
113067,-0.34150000,-0.02967359
113068,-0.35950000,-0.01335312
113069,-0.37200000,0.00296736
113070,-0.39000000,0.00296736
113071,-0.39600000,0.00296736
113072,-0.41450000,0.00296736
113073,-0.42650000,0.00296736
113074,-0.43900000,0.01780415
113075,-0.44500000,0.00296736
113076,-0.46300000,0.00296736
113077,-0.46950000,0.00296736
113078,-0.47550000,0.00296736
113079,-0.48750000,0.00296736
113080,-0.48750000,-0.02967359
113081,-0.50000000,-0.02967359
113082,-0.50600000,-0.00445104
113083,-0.51200000,0.00296736
113084,-0.51200000,0.00296736
113085,-0.51800000,0.01038576
113086,-0.51800000,0.17210682
113087,-0.52400000,0.58753709
113088,-0.53050000,0.65281899
113089,-0.53650000,0.13946588
113090,-0.53050000,-0.08605341
113091,-0.53650000,-0.20919881
113092,-0.53650000,-0.08605341
113093,-0.54250000,-0.02077151
113094,-0.53050000,-0.01335312
113095,-0.53650000,-0.02967359
113096,-0.53650000,-0.01335312
113097,-0.53650000,-0.01335312
113098,-0.53650000,-0.06231454
113099,-0.53050000,-0.01335312
113100,-0.53050000,0.00296736
113101,-0.53050000,0.00296736
113102,-0.53050000,0.01780415
113103,-0.53050000,0.01780415
113104,-0.52400000,0.00296736
113105,-0.52400000,0.01038576
113106,-0.52400000,0.05044510
113107,-0.52400000,0.08308605
113108,-0.51800000,0.06676558
113109,-0.51800000,0.08308605
113110,-0.52400000,0.15578635
113111,-0.51200000,0.18100890
113112,-0.50600000,0.18100890
113113,-0.50000000,0.19732938
113114,-0.46950000,0.29525223
113115,-0.43300000,0.33531157
113116,-0.44500000,0.32789318
113117,-0.37150000,0.32789318
113118,-0.26800000,0.32789318
113119,-0.14600000,0.27893175
113120,-0.00600000,0.21364985
113121,0.13400000,0.18842730
113122,0.27400000,0.11572700
113123,0.42050000,0.04154303
113124,0.53650000,0.01038576
113125,0.64000000,0.00296736
113126,0.72500000,0.00296736
113127,0.78000000,-0.02077151
113128,0.81650000,-0.05341246
113129,0.83500000,-0.04599407
113130,0.82250000,-0.02967359
113131,0.81050000,-0.02077151
113132,0.78600000,-0.02967359
113133,0.74950000,0.01038576
113134,0.71300000,0.01038576
113135,0.66400000,0.00296736
113136,0.61550000,-0.02077151
113137,0.56050000,0.01780415
113138,0.49950000,0.03412463
113139,0.44500000,0.00296736
113140,0.38400000,0.00296736
113141,0.32300000,0.00296736
113142,0.25600000,0.00296736
113143,0.18900000,0.00296736
113144,0.12800000,0.00296736
113145,0.05500000,0.01038576
113146,0.00000000,0.02522255
113147,-0.06100000,-0.00445104
113148,-0.11600000,0.05786350
113149,-0.15850000,0.27002967
113150,-0.20100000,0.39317507
113151,-0.22550000,-0.00445104
113152,-0.25000000,-0.08605341
113153,-0.26200000,-0.20029674
113154,-0.27400000,-0.17655786
113155,-0.28050000,-0.05341246
113156,-0.28650000,-0.03709199
113157,-0.29250000,-0.06231454
113158,-0.29250000,-0.03709199
113159,-0.30450000,-0.03709199
113160,-0.30450000,-0.02967359
113161,-0.32300000,0.00296736
113162,-0.32900000,-0.02967359
113163,-0.33500000,-0.06973294
113164,-0.34750000,-0.00445104
113165,-0.35350000,0.00296736
113166,-0.37150000,0.01038576
113167,-0.38400000,0.03412463
113168,-0.39600000,0.05044510
113169,-0.40850000,0.06676558
113170,-0.41450000,0.12314540
113171,-0.42650000,0.18842730
113172,-0.44500000,0.26261128
113173,-0.45700000,0.27002967
113174,-0.47550000,0.31157270
113175,-0.48150000,0.33531157
113176,-0.49350000,0.35163205
113177,-0.49950000,0.31157270
113178,-0.50600000,0.27002967
113179,-0.49350000,0.22106825
113180,-0.44900000,0.19732938
113181,-0.42800000,0.10682493
113182,-0.38650000,0.02522255
113183,-0.33400000,0.03412463
113184,-0.27150000,0.03412463
113185,-0.20400000,-0.03709199
113186,-0.13050000,-0.03709199
113187,-0.05250000,-0.00445104
113188,0.01550000,0.00296736
113189,0.08350000,-0.02077151
113190,0.14050000,-0.05341246
113191,0.18750000,-0.00445104
113192,0.21350000,0.01038576
113193,0.22950000,-0.02077151
113194,0.23450000,-0.02077151
113195,0.22400000,0.00296736
113196,0.20850000,0.00296736
113197,0.18250000,-0.01335312
113198,0.14600000,-0.02077151
113199,0.10400000,0.00296736
113200,0.04650000,-0.02077151
113201,0.00000000,-0.00445104
113202,-0.05750000,0.00296736
113203,-0.12050000,-0.04599407
113204,-0.17750000,-0.08605341
113205,-0.23000000,-0.11869436
113206,-0.28200000,-0.14391691
113207,-0.32900000,-0.04599407
113208,-0.36550000,-0.03709199
113209,-0.39150000,-0.06231454
113210,-0.41250000,-0.02967359
113211,-0.42300000,-0.00445104
113212,-0.43350000,-0.03709199
113213,-0.42800000,-0.06231454
113214,-0.42300000,-0.04599407
113215,-0.40750000,-0.02077151
113216,-0.39150000,-0.01335312
113217,-0.37600000,-0.04599407
113218,-0.36050000,-0.04599407
113219,-0.34450000,-0.06231454
113220,-0.33400000,-0.03709199
113221,-0.32400000,-0.03709199
113222,-0.31350000,-0.09495549
113223,-0.30300000,-0.06231454
113224,-0.30300000,-0.09495549
113225,-0.29750000,-0.06231454
113226,-0.29750000,-0.00445104
113227,-0.29750000,0.00296736
113228,-0.30300000,-0.00445104
113229,-0.30300000,0.00296736
113230,-0.31350000,0.00296736
113231,-0.31850000,0.07418398
113232,-0.32400000,0.43323442
113233,-0.33950000,0.70178042
113234,-0.34450000,0.21364985
113235,-0.35000000,-0.12759644
113236,-0.35500000,-0.29821958
113237,-0.36550000,-0.20029674
113238,-0.37100000,-0.07863501
113239,-0.37600000,-0.09495549
113240,-0.38100000,-0.09495549
113241,-0.39150000,-0.11869436
113242,-0.39700000,-0.10237389
113243,-0.40200000,-0.06973294
113244,-0.39700000,-0.03709199
113245,-0.40250000,-0.02967359
113246,-0.41850000,-0.02967359
113247,-0.42400000,-0.02967359
113248,-0.42400000,-0.02967359
113249,-0.43500000,-0.02967359
113250,-0.44600000,-0.00445104
113251,-0.45150000,0.00296736
113252,-0.46750000,0.00296736
113253,-0.47300000,0.00296736
113254,-0.48950000,0.04154303
113255,-0.49500000,0.11572700
113256,-0.50550000,0.17210682
113257,-0.51100000,0.22997033
113258,-0.50550000,0.20474777
113259,-0.48950000,0.22997033
113260,-0.46200000,0.26261128
113261,-0.42400000,0.27893175
113262,-0.35900000,0.29525223
113263,-0.28800000,0.28635015
113264,-0.19550000,0.22997033
113265,-0.08150000,0.18100890
113266,0.03250000,0.11572700
113267,0.14150000,0.05044510
113268,0.24450000,0.00296736
113269,0.34250000,-0.00445104
113270,0.42400000,-0.02967359
113271,0.47850000,-0.02967359
113272,0.52200000,-0.02967359
113273,0.54400000,-0.02967359
113274,0.55450000,-0.02967359
113275,0.54400000,-0.06231454
113276,0.52200000,-0.06231454
113277,0.50550000,-0.06231454
113278,0.47850000,-0.06231454
113279,0.44600000,-0.05341246
113280,0.40800000,-0.05341246
113281,0.37000000,-0.02967359
113282,0.33150000,-0.00445104
113283,0.29350000,-0.00445104
113284,0.25000000,-0.00445104
113285,0.19600000,0.00296736
113286,0.14700000,-0.01335312
113287,0.10350000,-0.03709199
113288,0.04350000,-0.11127596
113289,-0.01100000,-0.03709199
113290,-0.05450000,0.29525223
113291,-0.10850000,0.35905045
113292,-0.16300000,-0.05341246
113293,-0.20100000,-0.17655786
113294,-0.23400000,-0.07863501
113295,-0.26650000,-0.02077151
113296,-0.29900000,-0.02967359
113297,-0.32100000,-0.05341246
113298,-0.33150000,-0.06231454
113299,-0.34250000,-0.02967359
113300,-0.34250000,-0.02967359
113301,-0.34800000,-0.02967359
113302,-0.35350000,-0.05341246
113303,-0.36450000,-0.06973294
113304,-0.36450000,-0.06231454
113305,-0.37500000,-0.06231454
113306,-0.38050000,-0.06973294
113307,-0.38600000,-0.09495549
113308,-0.40100000,-0.07863501
113309,-0.41100000,-0.06231454
113310,-0.42550000,-0.03709199
113311,-0.43550000,0.00296736
113312,-0.45000000,0.05044510
113313,-0.45500000,0.08308605
113314,-0.46950000,0.13204748
113315,-0.48400000,0.16468843
113316,-0.48900000,0.19732938
113317,-0.49400000,0.20474777
113318,-0.49900000,0.22997033
113319,-0.49900000,0.21364985
113320,-0.49400000,0.17210682
113321,-0.47950000,0.11572700
113322,-0.45500000,0.05786350
113323,-0.41550000,0.01780415
113324,-0.37150000,-0.00445104
113325,-0.31800000,-0.02967359
113326,-0.25450000,-0.02077151
113327,-0.18600000,0.00296736
113328,-0.11250000,0.00296736
113329,-0.05400000,-0.01335312
113330,0.00500000,0.00296736
113331,0.05400000,0.00296736
113332,0.09300000,0.00296736
113333,0.11750000,-0.02077151
113334,0.12700000,-0.02967359
113335,0.12700000,-0.02967359
113336,0.11750000,-0.02967359
113337,0.09800000,-0.02967359
113338,0.06850000,-0.02077151
113339,0.03400000,-0.02967359
113340,-0.00500000,-0.02967359
113341,-0.04900000,-0.02967359
113342,-0.09800000,-0.02967359
113343,-0.14200000,-0.02967359
113344,-0.20050000,-0.02967359
113345,-0.24450000,-0.05341246
113346,-0.30350000,-0.07863501
113347,-0.34750000,0.03412463
113348,-0.39600000,0.44065282
113349,-0.43550000,0.52967359
113350,-0.47450000,0.05044510
113351,-0.49400000,-0.14391691
113352,-0.51350000,-0.11869436
113353,-0.52800000,-0.01335312
113354,-0.53300000,-0.04599407
113355,-0.53800000,-0.03709199
113356,-0.52800000,-0.06231454
113357,-0.51850000,-0.09495549
113358,-0.51850000,-0.07863501
113359,-0.50850000,-0.06231454
113360,-0.49400000,-0.06231454
113361,-0.49400000,-0.04599407
113362,-0.48400000,-0.02967359
113363,-0.47950000,-0.02967359
113364,-0.46950000,-0.02967359
113365,-0.47450000,-0.02967359
113366,-0.46950000,-0.01335312
113367,-0.47950000,0.00296736
113368,-0.48400000,0.01780415
113369,-0.48400000,0.05044510
113370,-0.49900000,0.12314540
113371,-0.50400000,0.16468843
113372,-0.52600000,0.18842730
113373,-0.53750000,0.22997033
113374,-0.53750000,0.22997033
113375,-0.54350000,0.26261128
113376,-0.53750000,0.27002967
113377,-0.52000000,0.26261128
113378,-0.49050000,0.22106825
113379,-0.44900000,0.17210682
113380,-0.39600000,0.15578635
113381,-0.32500000,0.09940653
113382,-0.23650000,0.04154303
113383,-0.14200000,0.03412463
113384,-0.04750000,0.00296736
113385,0.05300000,0.00296736
113386,0.13550000,0.00296736
113387,0.21250000,0.00296736
113388,0.27150000,0.00296736
113389,0.31850000,0.00296736
113390,0.33650000,0.00296736
113391,0.34850000,0.00296736
113392,0.34250000,0.01780415
113393,0.32450000,0.00296736
113394,0.30100000,0.00296736
113395,0.25950000,0.02522255
113396,0.21850000,0.01038576
113397,0.17100000,0.01780415
113398,0.11800000,0.00296736
113399,0.06500000,0.00296736
113400,0.00550000,0.00296736
113401,-0.05950000,0.00296736
113402,-0.12400000,0.00296736
113403,-0.18900000,0.00296736
113404,-0.24850000,0.00296736
113405,-0.31300000,0.00296736
113406,-0.36650000,-0.00445104
113407,-0.41950000,-0.01335312
113408,-0.45500000,0.00296736
113409,-0.49050000,-0.01335312
113410,-0.50800000,-0.00445104
113411,-0.51400000,0.01038576
113412,-0.52600000,0.01780415
113413,-0.52600000,0.03412463
113414,-0.52000000,0.02522255
113415,-0.50800000,0.03412463
113416,-0.50200000,0.01780415
113417,-0.49050000,0.01038576
113418,-0.49050000,0.00296736
113419,-0.49050000,0.00296736
113420,-0.48450000,0.00296736
113421,-0.49050000,0.00296736
113422,-0.48450000,0.00296736
113423,-0.48450000,0.00296736
113424,-0.49050000,-0.00445104
113425,-0.49050000,-0.01335312
113426,-0.49650000,0.03412463
113427,-0.50200000,0.05044510
113428,-0.50800000,0.20474777
113429,-0.52000000,0.58753709
113430,-0.53200000,0.58753709
113431,-0.53750000,0.10682493
113432,-0.55550000,-0.07863501
113433,-0.56150000,-0.19287834
113434,-0.56700000,-0.04599407
113435,-0.57900000,0.00296736
113436,-0.60650000,-0.02967359
113437,-0.61950000,-0.02967359
113438,-0.62650000,-0.02967359
113439,-0.64000000,-0.02077151
113440,-0.64000000,-0.02967359
113441,-0.64650000,-0.03709199
113442,-0.66000000,-0.02967359
113443,-0.66000000,-0.02077151
113444,-0.67350000,-0.02967359
113445,-0.66700000,0.00296736
113446,-0.68050000,0.00296736
113447,-0.67350000,0.02522255
113448,-0.68050000,0.02670623
113449,-0.67350000,0.06676558
113450,-0.67350000,0.07418398
113451,-0.67350000,0.10682493
113452,-0.67350000,0.14836795
113453,-0.66700000,0.19732938
113454,-0.65350000,0.20474777
113455,-0.62650000,0.24629080
113456,-0.57950000,0.27893175
113457,-0.51850000,0.29525223
113458,-0.43800000,0.31157270
113459,-0.32350000,0.32789318
113460,-0.18200000,0.28635015
113461,-0.03400000,0.23738872
113462,0.14100000,0.17210682
113463,0.30300000,0.15578635
113464,0.47100000,0.09940653
113465,0.61950000,0.04154303
113466,0.74750000,0.02522255
113467,0.84150000,0.00296736
113468,0.91550000,0.00296736
113469,0.96950000,0.00296736
113470,0.99000000,0.00296736
113471,0.98300000,0.00296736
113472,0.96950000,0.00296736
113473,0.94250000,0.00296736
113474,0.88900000,0.01038576
113475,0.84850000,0.00296736
113476,0.78750000,0.00296736
113477,0.72700000,0.00296736
113478,0.67350000,0.00296736
113479,0.59900000,0.01780415
113480,0.53200000,0.00296736
113481,0.45800000,0.00296736
113482,0.39050000,0.01038576
113483,0.30950000,0.01038576
113484,0.22900000,0.00296736
113485,0.15450000,0.00296736
113486,0.08750000,0.00296736
113487,0.00650000,0.01780415
113488,-0.04750000,0.01780415
113489,-0.10100000,0.05786350
113490,-0.14850000,0.03412463
113491,-0.18200000,0.00296736
113492,-0.20900000,0.00296736
113493,-0.22900000,-0.02077151
113494,-0.24950000,-0.02967359
113495,-0.26300000,0.00296736
113496,-0.26950000,0.02670623
113497,-0.27650000,0.13946588
113498,-0.26950000,0.46587537
113499,-0.27650000,0.66023739
113500,-0.32300000,0.22997033
113501,-0.33650000,0.05786350
113502,-0.33650000,-0.10237389
113503,-0.35650000,-0.08605341
113504,-0.36350000,-0.02967359
113505,-0.37700000,0.00296736
113506,-0.39050000,0.00296736
113507,-0.40400000,-0.00445104
113508,-0.42400000,-0.06231454
113509,-0.43750000,-0.06231454
113510,-0.45750000,-0.06231454
113511,-0.46450000,-0.06231454
113512,-0.48450000,-0.04599407
113513,-0.49800000,-0.04599407
113514,-0.51150000,-0.03709199
113515,-0.53200000,-0.06231454
113516,-0.54550000,-0.04599407
113517,-0.56550000,-0.05341246
113518,-0.57200000,-0.00445104
113519,-0.59250000,0.04154303
113520,-0.59900000,0.09940653
113521,-0.61950000,0.12314540
113522,-0.62600000,0.16468843
113523,-0.63950000,0.18842730
113524,-0.64650000,0.22997033
113525,-0.65300000,0.22997033
113526,-0.63950000,0.22997033
113527,-0.63950000,0.22106825
113528,-0.61250000,0.19732938
113529,-0.57900000,0.15578635
113530,-0.52500000,0.11572700
113531,-0.45750000,0.07418398
113532,-0.37000000,0.05786350
113533,-0.26250000,0.03412463
113534,-0.14800000,0.01038576
113535,-0.03350000,0.00296736
113536,0.08100000,0.00296736
113537,0.19550000,0.00296736
113538,0.29000000,0.00296736
113539,0.37050000,-0.00445104
113540,0.42450000,0.00296736
113541,0.47150000,-0.01335312
113542,0.49200000,-0.02967359
113543,0.49200000,-0.02967359
113544,0.48500000,-0.02967359
113545,0.45150000,-0.02077151
113546,0.41800000,-0.02967359
113547,0.37750000,-0.02967359
113548,0.33000000,-0.02967359
113549,0.28300000,-0.00445104
113550,0.22250000,0.00296736
113551,0.14850000,0.00296736
113552,0.08100000,0.00296736
113553,0.01350000,-0.00445104
113554,-0.06050000,-0.04599407
113555,-0.13450000,0.05044510
113556,-0.20200000,0.44065282
113557,-0.26250000,0.60385757
113558,-0.32300000,0.13946588
113559,-0.37000000,-0.03709199
113560,-0.40400000,-0.04599407
113561,-0.43750000,-0.00445104
113562,-0.45750000,-0.04599407
113563,-0.45750000,-0.07863501
113564,-0.36600000,-0.09495549
113565,-0.36600000,-0.06973294
113566,-0.36600000,-0.09495549
113567,-0.35400000,-0.06231454
113568,-0.34800000,-0.06231454
113569,-0.34250000,-0.06231454
113570,-0.33650000,-0.06231454
113571,-0.33050000,-0.06231454
113572,-0.33050000,-0.05341246
113573,-0.33050000,-0.02967359
113574,-0.33650000,-0.02077151
113575,-0.33650000,0.00296736
113576,-0.34800000,0.01780415
113577,-0.36000000,0.03412463
113578,-0.36600000,0.08308605
113579,-0.37200000,0.14836795
113580,-0.38350000,0.18842730
113581,-0.39550000,0.19732938
113582,-0.40750000,0.22997033
113583,-0.41900000,0.24629080
113584,-0.41900000,0.25370920
113585,-0.41300000,0.22106825
113586,-0.39550000,0.18100890
113587,-0.37800000,0.10682493
113588,-0.34250000,0.07418398
113589,-0.29500000,0.05044510
113590,-0.22400000,0.02522255
113591,-0.14750000,0.00296736
113592,-0.05900000,0.00296736
113593,0.03000000,0.00296736
113594,0.11850000,0.00296736
113595,0.19500000,0.00296736
113596,0.26600000,0.00296736
113597,0.32500000,0.00296736
113598,0.36650000,0.00296736
113599,0.39000000,0.00296736
113600,0.39000000,0.00296736
113601,0.38400000,0.00296736
113602,0.36650000,-0.02077151
113603,0.34850000,0.00296736
113604,0.30750000,0.00296736
113605,0.27200000,0.00296736
113606,0.22450000,0.02522255
113607,0.17750000,0.03412463
113608,0.11850000,0.00296736
113609,0.06500000,0.00296736
113610,0.00600000,0.00296736
113611,-0.05300000,0.00296736
113612,-0.11800000,-0.01335312
113613,-0.18300000,-0.02077151
113614,-0.24200000,0.15578635
113615,-0.28900000,0.58753709
113616,-0.33050000,0.31899110
113617,-0.36600000,-0.00445104
113618,-0.39550000,-0.14391691
113619,-0.41900000,-0.11127596
113620,-0.43100000,-0.03709199
113621,-0.43100000,-0.06231454
113622,-0.43100000,-0.06231454
113623,-0.42500000,-0.06231454
113624,-0.41300000,-0.02967359
113625,-0.40150000,-0.02967359
113626,-0.40150000,-0.02967359
113627,-0.38350000,-0.02967359
113628,-0.38950000,-0.02967359
113629,-0.38350000,-0.02967359
113630,-0.37750000,-0.02967359
113631,-0.37750000,-0.02967359
113632,-0.38350000,0.00296736
113633,-0.38350000,0.00296736
113634,-0.38950000,0.00296736
113635,-0.39500000,0.04154303
113636,-0.40100000,0.09050445
113637,-0.40650000,0.12314540
113638,-0.41250000,0.16468843
113639,-0.42400000,0.19732938
113640,-0.43000000,0.22997033
113641,-0.43000000,0.24629080
113642,-0.43600000,0.26261128
113643,-0.43000000,0.27893175
113644,-0.41250000,0.22997033
113645,-0.38350000,0.17210682
113646,-0.33700000,0.13204748
113647,-0.27900000,0.08308605
113648,-0.20350000,0.04154303
113649,-0.11050000,0.00296736
113650,-0.02300000,0.00296736
113651,0.07550000,0.00296736
113652,0.16850000,0.00296736
113653,0.26150000,0.00296736
113654,0.33150000,0.00296736
113655,0.38950000,0.00296736
113656,0.43050000,0.00296736
113657,0.45350000,0.00296736
113658,0.46500000,0.01780415
113659,0.45950000,0.01780415
113660,0.44200000,0.01038576
113661,0.41300000,0.00296736
113662,0.37800000,0.00296736
113663,0.33150000,0.00296736
113664,0.27900000,0.00296736
113665,0.22100000,-0.00445104
113666,0.16850000,-0.01335312
113667,0.10500000,0.00296736
113668,0.04100000,0.00296736
113669,-0.02300000,0.00296736
113670,-0.09300000,0.00296736
113671,-0.14500000,0.00296736
113672,-0.19150000,0.00296736
113673,-0.23800000,0.00296736
113674,-0.28450000,0.00296736
113675,-0.30800000,0.00296736
113676,-0.33700000,0.00296736
113677,-0.34850000,0.00296736
113678,-0.37200000,0.00296736
113679,-0.37200000,0.00296736
113680,-0.37200000,0.00296736
113681,-0.37750000,0.00296736
113682,-0.37200000,0.00296736
113683,-0.36600000,0.00296736
113684,-0.37200000,0.00296736
113685,-0.36600000,0.00296736
113686,-0.36600000,0.00296736
113687,-0.36600000,0.00296736
113688,-0.36000000,0.00296736
113689,-0.37200000,0.00296736
113690,-0.37200000,0.00296736
113691,-0.37750000,0.00296736
113692,-0.39900000,0.00296736
113693,-0.41050000,0.00296736
113694,-0.42250000,0.00296736
113695,-0.43950000,0.00296736
113696,-0.44550000,0.00296736
113697,-0.46250000,0.00296736
113698,-0.46850000,0.00296736
113699,-0.49150000,0.00296736
113700,-0.49750000,0.02522255
113701,-0.50900000,0.00296736
113702,-0.52650000,0.00296736
113703,-0.53200000,0.03412463
113704,-0.53800000,0.13946588
113705,-0.54950000,0.47329377
113706,-0.55500000,0.56231454
113707,-0.56100000,0.07566766
113708,-0.56100000,-0.22551929
113709,-0.56700000,-0.20919881
113710,-0.57250000,-0.07863501
113711,-0.57250000,0.00296736
113712,-0.57850000,0.00296736
113713,-0.57850000,0.00296736
113714,-0.58400000,0.00296736
113715,-0.58400000,0.00296736
113716,-0.58400000,0.00296736
113717,-0.57850000,0.00296736
113718,-0.58400000,0.00296736
113719,-0.58400000,0.00296736
113720,-0.59000000,0.00296736
113721,-0.58400000,0.00296736
113722,-0.58400000,0.00296736
113723,-0.57850000,0.01780415
113724,-0.57850000,0.04154303
113725,-0.57850000,0.06676558
113726,-0.57250000,0.09050445
113727,-0.56700000,0.10682493
113728,-0.56100000,0.17210682
113729,-0.55500000,0.21364985
113730,-0.54350000,0.25370920
113731,-0.50900000,0.27893175
113732,-0.46850000,0.30267062
113733,-0.41050000,0.34421365
113734,-0.33000000,0.32789318
113735,-0.22000000,0.32789318
113736,-0.09250000,0.34421365
113737,0.05200000,0.29525223
113738,0.20200000,0.22106825
113739,0.35800000,0.18100890
113740,0.50250000,0.11572700
113741,0.63550000,0.06676558
113742,0.74550000,0.01038576
113743,0.83250000,0.00296736
113744,0.88450000,0.00296736
113745,0.92500000,0.00296736
113746,0.94200000,0.00296736
113747,0.93650000,0.00296736
113748,0.91900000,0.00296736
113749,0.88450000,0.01780415
113750,0.85550000,0.00296736
113751,0.81500000,0.00296736
113752,0.76300000,0.01038576
113753,0.70500000,0.02522255
113754,0.64750000,0.01038576
113755,0.58950000,0.03412463
113756,0.52600000,0.00296736
113757,0.45650000,-0.01335312
113758,0.38700000,-0.02967359
113759,0.31200000,-0.01335312
113760,0.23700000,0.00296736
113761,0.16750000,0.00296736
113762,0.09250000,0.00296736
113763,0.02850000,0.00296736
113764,-0.02900000,0.00296736
113765,-0.08700000,0.00296736
113766,-0.13900000,0.00296736
113767,-0.16800000,-0.01335312
113768,-0.20250000,-0.02967359
113769,-0.22550000,-0.01335312
113770,-0.24300000,0.00296736
113771,-0.26050000,-0.02077151
113772,-0.27200000,-0.02967359
113773,-0.27200000,-0.02967359
113774,-0.27750000,-0.03709199
113775,-0.28950000,-0.02967359
113776,-0.29500000,-0.04599407
113777,-0.30100000,-0.05341246
113778,-0.31250000,-0.02967359
113779,-0.33000000,-0.02967359
113780,-0.34700000,-0.06231454
113781,-0.36450000,-0.07863501
113782,-0.37600000,-0.07863501
113783,-0.39350000,-0.06973294
113784,-0.41650000,-0.06231454
113785,-0.42800000,-0.02967359
113786,-0.45100000,0.00296736
113787,-0.46850000,0.16468843
113788,-0.48600000,0.52967359
113789,-0.49750000,0.34272997
113790,-0.51500000,-0.01335312
113791,-0.52650000,-0.20029674
113792,-0.54350000,-0.31454006
113793,-0.55500000,-0.20919881
113794,-0.56700000,-0.14391691
113795,-0.57850000,-0.15133531
113796,-0.59550000,-0.12759644
113797,-0.60150000,-0.11127596
113798,-0.61300000,-0.09495549
113799,-0.61900000,-0.09495549
113800,-0.62450000,-0.06973294
113801,-0.64200000,-0.05341246
113802,-0.64750000,-0.08605341
113803,-0.64750000,-0.09495549
113804,-0.65350000,-0.06231454
113805,-0.65950000,-0.06231454
113806,-0.65350000,-0.11127596
113807,-0.65350000,-0.06973294
113808,-0.65950000,-0.00445104
113809,-0.66500000,0.00296736
113810,-0.65950000,0.04154303
113811,-0.65950000,0.07418398
113812,-0.65350000,0.10682493
113813,-0.65350000,0.13204748
113814,-0.64200000,0.17210682
113815,-0.63050000,0.18100890
113816,-0.61300000,0.22997033
113817,-0.57850000,0.22997033
113818,-0.53800000,0.19732938
113819,-0.47450000,0.13204748
113820,-0.41050000,0.08308605
113821,-0.31800000,0.04154303
113822,-0.20800000,0.01780415
113823,-0.09250000,-0.00445104
113824,0.02900000,-0.00445104
113825,0.14450000,-0.01335312
113826,0.24850000,-0.05341246
113827,0.34100000,-0.06231454
113828,0.42200000,-0.06231454
113829,0.47400000,-0.06231454
113830,0.50300000,-0.06973294
113831,0.52050000,-0.06231454
113832,0.52050000,-0.03709199
113833,0.50900000,-0.03709199
113834,0.49150000,-0.06231454
113835,0.45700000,-0.06231454
113836,0.41650000,-0.02967359
113837,0.37000000,-0.05341246
113838,0.32950000,-0.02967359
113839,0.27750000,-0.02967359
113840,0.21400000,0.00296736
113841,0.15600000,-0.00445104
113842,0.09250000,-0.02967359
113843,0.02900000,-0.02967359
113844,-0.04050000,-0.03709199
113845,-0.10400000,-0.04599407
113846,-0.16750000,0.03412463
113847,-0.21950000,0.35905045
113848,-0.26600000,0.48071217
113849,-0.30050000,0.09940653
113850,-0.33500000,-0.04599407
113851,-0.35850000,-0.21661721
113852,-0.37550000,-0.15133531
113853,-0.38150000,-0.09495549
113854,-0.38700000,-0.09495549
113855,-0.39300000,-0.09495549
113856,-0.38700000,-0.11869436
113857,-0.38700000,-0.10237389
113858,-0.38150000,-0.09495549
113859,-0.37550000,-0.09495549
113860,-0.37550000,-0.09495549
113861,-0.37550000,-0.07863501
113862,-0.38150000,-0.07863501
113863,-0.38150000,-0.08605341
113864,-0.38150000,-0.06973294
113865,-0.38700000,-0.05341246
113866,-0.39900000,-0.02967359
113867,-0.40450000,-0.02967359
113868,-0.41600000,-0.02077151
113869,-0.43350000,0.01780415
113870,-0.44500000,0.05044510
113871,-0.45100000,0.09050445
113872,-0.46250000,0.13204748
113873,-0.46800000,0.18842730
113874,-0.47950000,0.22997033
113875,-0.49150000,0.26261128
113876,-0.50300000,0.23738872
113877,-0.49700000,0.18842730
113878,-0.49700000,0.13204748
113879,-0.49700000,0.06676558
113880,-0.46800000,0.01038576
113881,-0.43950000,0.00296736
113882,-0.39900000,0.00296736
113883,-0.35250000,-0.02967359
113884,-0.26800000,-0.06231454
113885,-0.19850000,-0.06231454
113886,-0.11800000,-0.06231454
113887,-0.04300000,-0.06231454
113888,0.02150000,-0.06231454
113889,0.08000000,-0.06231454
113890,0.13900000,-0.06231454
113891,0.17650000,-0.05341246
113892,0.20350000,-0.02967359
113893,0.21400000,-0.01335312
113894,0.21950000,-0.02077151
113895,0.20350000,-0.02967359
113896,0.18750000,-0.02967359
113897,0.15550000,-0.02967359
113898,0.11250000,-0.02967359
113899,0.08000000,-0.02967359
113900,0.02650000,-0.04599407
113901,-0.01600000,-0.02967359
113902,-0.07500000,-0.04599407
113903,-0.12900000,-0.06231454
113904,-0.18250000,0.00148368
113905,-0.23600000,0.34272997
113906,-0.28400000,0.57121662
113907,-0.32150000,0.13204748
113908,-0.35900000,-0.13501484
113909,-0.38600000,-0.11127596
113910,-0.40750000,-0.03709199
113911,-0.42900000,-0.04599407
113912,-0.43450000,-0.06231454
113913,-0.43950000,-0.08605341
113914,-0.43450000,-0.09495549
113915,-0.43450000,-0.09495549
113916,-0.42900000,-0.09495549
113917,-0.41800000,-0.09495549
113918,-0.40750000,-0.07863501
113919,-0.40200000,-0.06231454
113920,-0.39700000,-0.06231454
113921,-0.39150000,-0.05341246
113922,-0.38600000,-0.06231454
113923,-0.38600000,-0.05341246
113924,-0.38050000,-0.04599407
113925,-0.38050000,-0.06231454
113926,-0.38050000,-0.01335312
113927,-0.38600000,0.00296736
113928,-0.39150000,0.05044510
113929,-0.39700000,0.09050445
113930,-0.40200000,0.14836795
113931,-0.40750000,0.18842730
113932,-0.41800000,0.21364985
113933,-0.41300000,0.22997033
113934,-0.40200000,0.19732938
113935,-0.38600000,0.16468843
113936,-0.35900000,0.14836795
113937,-0.32150000,0.08308605
113938,-0.26300000,0.01780415
113939,-0.20400000,-0.02967359
113940,-0.11800000,-0.06231454
113941,-0.03250000,-0.04599407
113942,0.04800000,-0.02967359
113943,0.13400000,-0.02967359
113944,0.21400000,-0.02967359
113945,0.27850000,-0.05341246
113946,0.33200000,-0.02077151
113947,0.35900000,0.00296736
113948,0.40000000,0.00296736
113949,0.40500000,0.00296736
113950,0.39450000,0.00296736
113951,0.38350000,-0.00445104
113952,0.35650000,-0.02967359
113953,0.32400000,-0.02967359
113954,0.28650000,-0.03709199
113955,0.23750000,-0.05341246
113956,0.18900000,-0.06231454
113957,0.14050000,-0.06973294
113958,0.08650000,-0.06973294
113959,0.02700000,-0.06231454
113960,-0.02750000,-0.06231454
113961,-0.08650000,-0.05341246
113962,-0.14600000,-0.06231454
113963,-0.19500000,-0.02967359
113964,-0.24350000,-0.02967359
113965,-0.28150000,-0.02967359
113966,-0.31900000,-0.03709199
113967,-0.34100000,-0.02967359
113968,-0.36250000,-0.02967359
113969,-0.37350000,-0.05341246
113970,-0.37350000,-0.06231454
113971,-0.37850000,-0.06231454
113972,-0.37850000,-0.02967359
113973,-0.37350000,-0.02967359
113974,-0.36800000,-0.02967359
113975,-0.36250000,-0.02077151
113976,-0.35150000,-0.02967359
113977,-0.34600000,-0.02967359
113978,-0.34600000,-0.01335312
113979,-0.34100000,0.00296736
113980,-0.34600000,-0.00445104
113981,-0.34600000,-0.02967359
113982,-0.34600000,-0.01335312
113983,-0.35150000,-0.02967359
113984,-0.36250000,-0.02967359
113985,-0.37850000,-0.02967359
113986,-0.38950000,-0.02077151
113987,-0.39500000,0.00296736
113988,-0.41100000,0.00296736
113989,-0.41650000,0.05786350
113990,-0.43250000,0.35163205
113991,-0.44350000,0.64391691
113992,-0.45450000,0.27002967
113993,-0.47050000,-0.08605341
113994,-0.48150000,-0.19287834
113995,-0.48700000,-0.11127596
113996,-0.50300000,-0.01335312
113997,-0.50850000,-0.03709199
113998,-0.51400000,-0.06231454
113999,-0.52450000,-0.06231454
114000,-0.53000000,-0.06231454
114001,-0.53000000,-0.07863501
114002,-0.54100000,-0.08605341
114003,-0.54100000,-0.06231454
114004,-0.54650000,-0.03709199
114005,-0.55150000,-0.02967359
114006,-0.54650000,0.00296736
114007,-0.54650000,0.00296736
114008,-0.54650000,0.00296736
114009,-0.54650000,0.01780415
114010,-0.54650000,0.03412463
114011,-0.53550000,0.03412463
114012,-0.53850000,0.05044510
114013,-0.53850000,0.07418398
114014,-0.53850000,0.12314540
114015,-0.52750000,0.14836795
114016,-0.51150000,0.19732938
114017,-0.48950000,0.23738872
114018,-0.45700000,0.22997033
114019,-0.39700000,0.21364985
114020,-0.31550000,0.28635015
114021,-0.22300000,0.27893175
114022,-0.10350000,0.24629080
114023,0.01600000,0.19732938
114024,0.16300000,0.16468843
114025,0.29350000,0.09940653
114026,0.42400000,0.04154303
114027,0.53800000,0.01780415
114028,0.64150000,0.00296736
114029,0.70650000,0.00296736
114030,0.76650000,-0.04599407
114031,0.79350000,-0.02967359
114032,0.80450000,-0.02967359
114033,0.78800000,-0.01335312
114034,0.77200000,0.00296736
114035,0.73950000,-0.00445104
114036,0.70100000,0.00296736
114037,0.66850000,0.00296736
114038,0.61400000,0.00296736
114039,0.57050000,-0.00445104
114040,0.51100000,0.00296736
114041,0.45650000,0.00296736
114042,0.39150000,0.00296736
114043,0.33150000,0.00296736
114044,0.26600000,0.00296736
114045,0.20650000,0.00296736
114046,0.13550000,-0.01335312
114047,0.07600000,-0.02967359
114048,0.01600000,-0.02967359
114049,-0.03850000,0.00296736
114050,-0.09250000,-0.01335312
114051,-0.13600000,-0.02967359
114052,-0.16900000,-0.02967359
114053,-0.20150000,-0.05341246
114054,-0.22850000,-0.02967359
114055,-0.25050000,0.00296736
114056,-0.26100000,-0.01335312
114057,-0.27200000,-0.02967359
114058,-0.28300000,-0.02967359
114059,-0.28850000,-0.01335312
114060,-0.29400000,0.00296736
114061,-0.29400000,-0.01335312
114062,-0.30450000,0.00296736
114063,-0.31550000,0.00296736
114064,-0.31550000,0.04154303
114065,-0.32100000,0.22997033
114066,-0.33200000,0.62759644
114067,-0.34300000,0.51483680
114068,-0.35350000,0.12314540
114069,-0.37000000,-0.06973294
114070,-0.37550000,-0.20919881
114071,-0.39700000,-0.14391691
114072,-0.40800000,-0.08605341
114073,-0.42450000,-0.06973294
114074,-0.44050000,-0.06231454
114075,-0.45700000,-0.06231454
114076,-0.46250000,-0.07863501
114077,-0.47300000,-0.08605341
114078,-0.48950000,-0.04599407
114079,-0.50050000,-0.02967359
114080,-0.51100000,-0.04599407
114081,-0.52200000,-0.06973294
114082,-0.52750000,-0.06973294
114083,-0.53850000,-0.02967359
114084,-0.53850000,0.00296736
114085,-0.54400000,-0.02077151
114086,-0.55450000,-0.01335312
114087,-0.56000000,0.00296736
114088,-0.56000000,0.02522255
114089,-0.56550000,0.04154303
114090,-0.56000000,0.08308605
114091,-0.56000000,0.14836795
114092,-0.56000000,0.19732938
114093,-0.55450000,0.22106825
114094,-0.54400000,0.22997033
114095,-0.52750000,0.22106825
114096,-0.48950000,0.20474777
114097,-0.44600000,0.14836795
114098,-0.38600000,0.09050445
114099,-0.31550000,0.04154303
114100,-0.22850000,0.01038576
114101,-0.13050000,-0.00445104
114102,-0.02200000,-0.02077151
114103,0.07600000,-0.05341246
114104,0.17400000,-0.05341246
114105,0.25550000,-0.02967359
114106,0.33150000,-0.02967359
114107,0.38600000,-0.02967359
114108,0.42400000,-0.02967359
114109,0.44050000,-0.02967359
114110,0.44050000,-0.02967359
114111,0.42950000,-0.02967359
114112,0.40750000,-0.06231454
114113,0.37500000,-0.06231454
114114,0.34250000,-0.09495549
114115,0.30450000,-0.07863501
114116,0.26650000,-0.06231454
114117,0.22300000,-0.06231454
114118,0.17400000,-0.03709199
114119,0.12500000,-0.03709199
114120,0.07050000,-0.03709199
114121,0.01100000,-0.02967359
114122,-0.04350000,-0.02967359
114123,-0.09800000,-0.02967359
114124,-0.15250000,-0.01335312
114125,-0.20150000,-0.02967359
114126,-0.25000000,-0.02967359
114127,-0.27750000,-0.04599407
114128,-0.31000000,-0.06231454
114129,-0.32650000,-0.07863501
114130,-0.34250000,-0.06231454
114131,-0.34800000,-0.06973294
114132,-0.35350000,-0.07863501
114133,-0.35350000,-0.06973294
114134,-0.35350000,-0.06231454
114135,-0.34800000,-0.06231454
114136,-0.34250000,-0.03709199
114137,-0.34250000,-0.01335312
114138,-0.33700000,-0.01335312
114139,-0.33200000,-0.02967359
114140,-0.34300000,-0.02967359
114141,-0.34850000,-0.07863501
114142,-0.34850000,-0.06973294
114143,-0.34850000,-0.04599407
114144,-0.36000000,-0.05341246
114145,-0.36000000,-0.06231454
114146,-0.36600000,-0.06231454
114147,-0.37150000,-0.06231454
114148,-0.38300000,-0.05341246
114149,-0.39450000,-0.04599407
114150,-0.40000000,-0.02967359
114151,-0.41150000,-0.02967359
114152,-0.41750000,-0.02967359
114153,-0.43450000,-0.02077151
114154,-0.43450000,0.00296736
114155,-0.44600000,0.00296736
114156,-0.45150000,-0.02967359
114157,-0.46300000,0.00296736
114158,-0.46300000,-0.01335312
114159,-0.47450000,-0.02967359
114160,-0.48050000,-0.02967359
114161,-0.49150000,-0.02077151
114162,-0.49150000,-0.02077151
114163,-0.49750000,-0.02967359
114164,-0.50300000,-0.02967359
114165,-0.50300000,-0.02967359
114166,-0.50300000,0.00296736
114167,-0.50300000,0.04302671
114168,-0.50300000,0.34272997
114169,-0.50300000,0.51335312
114170,-0.50300000,0.13204748
114171,-0.49750000,-0.10237389
114172,-0.49750000,-0.24925816
114173,-0.50300000,-0.20919881
114174,-0.49750000,-0.08605341
114175,-0.50300000,-0.04599407
114176,-0.50900000,-0.02967359
114177,-0.50900000,-0.02967359
114178,-0.50900000,-0.02967359
114179,-0.50300000,-0.01335312
114180,-0.50300000,-0.02077151
114181,-0.50300000,-0.02967359
114182,-0.50300000,-0.01335312
114183,-0.49150000,-0.02967359
114184,-0.49150000,-0.02967359
114185,-0.49150000,-0.02967359
114186,-0.49750000,-0.02967359
114187,-0.49150000,-0.04599407
114188,-0.49150000,-0.02967359
114189,-0.48600000,0.00296736
114190,-0.48050000,0.02522255
114191,-0.47450000,0.06676558
114192,-0.46900000,0.13204748
114193,-0.45750000,0.17210682
114194,-0.44600000,0.22997033
114195,-0.42900000,0.27002967
114196,-0.40000000,0.29525223
114197,-0.36000000,0.29525223
114198,-0.28600000,0.31157270
114199,-0.20600000,0.30267062
114200,-0.10850000,0.26261128
114201,0.01750000,0.18100890
114202,0.14900000,0.11572700
114203,0.29200000,0.05786350
114204,0.42900000,0.01038576
114205,0.56050000,0.00296736
114206,0.68050000,-0.02967359
114207,0.77200000,-0.02967359
114208,0.84100000,-0.02967359
114209,0.89200000,-0.02967359
114210,0.92100000,0.00296736
114211,0.93800000,0.00296736
114212,0.92650000,0.00296736
114213,0.90950000,0.00296736
114214,0.89200000,0.01038576
114215,0.85200000,0.00296736
114216,0.81800000,0.00296736
114217,0.76650000,-0.01335312
114218,0.71500000,-0.05341246
114219,0.65800000,-0.03709199
114220,0.60650000,-0.02077151
114221,0.54350000,0.00296736
114222,0.48050000,0.00296736
114223,0.41750000,0.00296736
114224,0.34900000,0.00296736
114225,0.29200000,0.00296736
114226,0.22300000,0.00296736
114227,0.16000000,0.00296736
114228,0.10300000,0.01038576
114229,0.05150000,0.03412463
114230,0.01150000,0.07418398
114231,-0.02850000,0.11572700
114232,-0.06300000,0.11572700
114233,-0.09150000,0.05044510
114234,-0.10850000,-0.16765579
114235,-0.12000000,-0.46884273
114236,-0.13700000,-1.06231454
114237,-0.14850000,-1.37240356
114238,-0.15450000,-1.31602374
114239,-0.16550000,-1.14391691
114240,-0.17150000,-0.82640950
114241,-0.18300000,-0.55044510
114242,-0.18850000,-0.30712166
114243,-0.20600000,-0.16023739
114244,-0.21700000,-0.06973294
114245,-0.22850000,-0.00445104
114246,-0.24600000,0.11572700
114247,-0.25700000,0.20474777
114248,-0.28000000,0.28635015
114249,-0.29750000,0.30267062
114250,-0.32000000,0.32789318
114251,-0.33750000,0.30267062
114252,-0.36000000,0.28635015
114253,-0.37150000,0.30267062
114254,-0.38300000,0.35163205
114255,-0.40600000,0.45697329
114256,-0.41750000,0.56231454
114257,-0.42900000,0.65281899
114258,-0.45150000,0.75816024
114259,-0.46300000,0.85608309
114260,-0.47450000,0.92878338
114261,-0.49750000,0.96884273
114262,-0.50300000,0.98516320
114263,-0.51450000,0.99406528
114264,-0.52050000,0.94510386
114265,-0.52600000,0.85608309
114266,-0.53150000,0.73442136
114267,-0.52600000,0.59495549
114268,-0.50200000,0.43323442
114269,-0.48250000,0.28635015
114270,-0.45850000,0.17210682
114271,-0.42400000,0.09050445
114272,-0.38050000,0.03412463
114273,-0.33150000,0.00296736
114274,-0.27300000,-0.00445104
114275,-0.20950000,-0.02967359
114276,-0.14150000,-0.04599407
114277,-0.09250000,-0.06231454
114278,-0.03900000,-0.06231454
114279,-0.00500000,-0.06231454
114280,0.02450000,-0.05341246
114281,0.03900000,-0.03709199
114282,0.03400000,-0.04599407
114283,0.02900000,-0.09495549
114284,0.00500000,-0.06973294
114285,-0.02950000,-0.06973294
114286,-0.06850000,-0.09495549
114287,-0.11700000,-0.10237389
114288,-0.17050000,-0.11127596
114289,-0.21450000,-0.09495549
114290,-0.26800000,-0.10237389
114291,-0.32650000,-0.10237389
114292,-0.37050000,-0.06231454
114293,-0.40950000,-0.06231454
114294,-0.44850000,-0.06973294
114295,-0.47800000,-0.06231454
114296,-0.50700000,-0.05341246
114297,-0.53150000,-0.08605341
114298,-0.54100000,-0.07863501
114299,-0.54600000,-0.06973294
114300,-0.55100000,-0.07863501
114301,-0.54600000,-0.06231454
114302,-0.53650000,-0.06973294
114303,-0.53150000,-0.09495549
114304,-0.52650000,-0.11127596
114305,-0.52150000,-0.08605341
114306,-0.50700000,-0.07863501
114307,-0.49750000,-0.04599407
114308,-0.49250000,-0.06231454
114309,-0.48250000,-0.02967359
114310,-0.48250000,-0.06231454
114311,-0.47300000,-0.04599407
114312,-0.46800000,-0.02967359
114313,-0.46300000,-0.02967359
114314,-0.46800000,-0.04599407
114315,-0.46800000,-0.06231454
114316,-0.47300000,-0.05341246
114317,-0.46800000,-0.03709199
114318,-0.47300000,-0.06231454
114319,-0.47800000,-0.06231454
114320,-0.48250000,-0.06231454
114321,-0.48250000,-0.03709199
114322,-0.49250000,-0.02967359
114323,-0.49250000,-0.00445104
114324,-0.49750000,-0.02077151
114325,-0.49750000,-0.00445104
114326,-0.50700000,0.01038576
114327,-0.51200000,0.05044510
114328,-0.51200000,0.19732938
114329,-0.52150000,0.55489614
114330,-0.52650000,0.51483680
114331,-0.52650000,0.08308605
114332,-0.53150000,-0.08605341
114333,-0.52650000,-0.27448071
114334,-0.53150000,-0.21661721
114335,-0.52150000,-0.11127596
114336,-0.52650000,-0.06231454
114337,-0.52650000,-0.06231454
114338,-0.52150000,-0.05341246
114339,-0.51700000,-0.02967359
114340,-0.51200000,-0.05341246
114341,-0.51200000,-0.05341246
114342,-0.51200000,-0.03709199
114343,-0.51200000,0.00296736
114344,-0.50200000,0.00296736
114345,-0.50700000,-0.03709199
114346,-0.50700000,-0.05341246
114347,-0.49750000,-0.06231454
114348,-0.49750000,-0.02967359
114349,-0.49250000,-0.02077151
114350,-0.49250000,0.00296736
114351,-0.48750000,0.01780415
114352,-0.48750000,0.03412463
114353,-0.48250000,0.09050445
114354,-0.47800000,0.18100890
114355,-0.46800000,0.22106825
114356,-0.44850000,0.24629080
114357,-0.42900000,0.27002967
114358,-0.39000000,0.29525223
114359,-0.33650000,0.29525223
114360,-0.26800000,0.28635015
114361,-0.18050000,0.22997033
114362,-0.07800000,0.20474777
114363,0.02900000,0.11572700
114364,0.14600000,0.04154303
114365,0.26300000,0.01780415
114366,0.38000000,-0.03709199
114367,0.47750000,-0.06973294
114368,0.56550000,-0.08605341
114369,0.63350000,-0.12759644
114370,0.68250000,-0.15133531
114371,0.71150000,-0.09495549
114372,0.72150000,-0.07863501
114373,0.72650000,-0.05341246
114374,0.70700000,0.00296736
114375,0.68750000,0.00296736
114376,0.65800000,0.00296736
114377,0.62400000,0.00296736
114378,0.58500000,0.01780415
114379,0.55100000,0.00296736
114380,0.51200000,0.00296736
114381,0.46800000,0.00296736
114382,0.42400000,0.00296736
114383,0.36550000,0.00296736
114384,0.32150000,-0.01335312
114385,0.26300000,-0.04599407
114386,0.20950000,-0.08605341
114387,0.16100000,-0.10237389
114388,0.10250000,-0.10237389
114389,0.05850000,-0.10237389
114390,0.00950000,-0.11127596
114391,-0.03400000,-0.09495549
114392,-0.07300000,-0.09495549
114393,-0.10250000,-0.06231454
114394,-0.12200000,-0.05341246
114395,-0.14150000,-0.02077151
114396,-0.15600000,-0.02077151
114397,-0.17050000,-0.02967359
114398,-0.18050000,-0.01335312
114399,-0.18050000,0.00296736
114400,-0.19000000,0.00296736
114401,-0.20000000,0.00296736
114402,-0.20500000,0.00296736
114403,-0.21950000,0.00296736
114404,-0.22450000,-0.02077151
114405,-0.22900000,-0.01335312
114406,-0.23900000,-0.02967359
114407,-0.25350000,-0.03709199
114408,-0.25850000,-0.06973294
114409,-0.26800000,-0.09495549
114410,-0.27800000,-0.09495549
114411,-0.28750000,-0.09495549
114412,-0.30250000,-0.09495549
114413,-0.31700000,-0.09495549
114414,-0.32200000,-0.08605341
114415,-0.34150000,-0.05341246
114416,-0.35100000,-0.01335312
114417,-0.36100000,0.15578635
114418,-0.37550000,0.56231454
114419,-0.39000000,0.50593472
114420,-0.39500000,0.08308605
114421,-0.40950000,-0.07863501
114422,-0.41450000,-0.23293769
114423,-0.42900000,-0.12759644
114424,-0.42900000,-0.06231454
114425,-0.44350000,-0.06231454
114426,-0.44350000,-0.07863501
114427,-0.45350000,-0.09495549
114428,-0.45850000,-0.06231454
114429,-0.46300000,-0.08605341
114430,-0.45850000,-0.09495549
114431,-0.45850000,-0.09495549
114432,-0.46300000,-0.09495549
114433,-0.46300000,-0.09495549
114434,-0.46300000,-0.09495549
114435,-0.46300000,-0.04599407
114436,-0.46800000,-0.00445104
114437,-0.46800000,0.00296736
114438,-0.46800000,0.03412463
114439,-0.47300000,0.05044510
114440,-0.47300000,0.08308605
114441,-0.47300000,0.13204748
114442,-0.47300000,0.18842730
114443,-0.46800000,0.21364985
114444,-0.46300000,0.22997033
114445,-0.45350000,0.26261128
114446,-0.44350000,0.27893175
114447,-0.41450000,0.24629080
114448,-0.37550000,0.21364985
114449,-0.33150000,0.14836795
114450,-0.26800000,0.08308605
114451,-0.18550000,0.02670623
114452,-0.10250000,0.00296736
114453,-0.00500000,-0.02967359
114454,0.10250000,-0.06231454
114455,0.20000000,-0.02077151
114456,0.28750000,-0.02077151
114457,0.37050000,0.00296736
114458,0.43850000,0.00296736
114459,0.48250000,-0.02967359
114460,0.52150000,0.00296736
114461,0.54100000,0.00296736
114462,0.54600000,0.00296736
114463,0.53600000,0.00296736
114464,0.52650000,-0.02967359
114465,0.50700000,0.00296736
114466,0.47300000,-0.02077151
114467,0.44350000,-0.03709199
114468,0.40950000,-0.06973294
114469,0.37550000,-0.09495549
114470,0.33150000,-0.11869436
114471,0.28750000,-0.12759644
114472,0.23900000,-0.11869436
114473,0.18500000,-0.09495549
114474,0.13650000,-0.09495549
114475,0.08300000,-0.04599407
114476,0.03400000,-0.00445104
114477,-0.01950000,0.00296736
114478,-0.06350000,0.00296736
114479,-0.11200000,0.00296736
114480,-0.15600000,-0.00445104
114481,-0.18550000,0.00296736
114482,-0.21450000,0.00296736
114483,-0.23900000,0.00296736
114484,-0.25850000,-0.01335312
114485,-0.26800000,0.00296736
114486,-0.27800000,0.00296736
114487,-0.29250000,-0.00445104
114488,-0.29250000,-0.01335312
114489,-0.30250000,-0.02967359
114490,-0.30250000,-0.02967359
114491,-0.31200000,-0.01335312
114492,-0.31200000,0.01038576
114493,-0.32200000,0.13204748
114494,-0.32650000,0.48219585
114495,-0.33650000,0.50593472
114496,-0.34600000,0.05044510
114497,-0.35100000,-0.19287834
114498,-0.36100000,-0.20029674
114499,-0.36550000,-0.04599407
114500,-0.38050000,-0.01335312
114501,-0.39500000,-0.04599407
114502,-0.40000000,-0.06231454
114503,-0.41450000,-0.06231454
114504,-0.41950000,-0.07863501
114505,-0.43900000,-0.06231454
114506,-0.44350000,-0.06231454
114507,-0.45350000,-0.07863501
114508,-0.46300000,-0.06231454
114509,-0.47800000,-0.06231454
114510,-0.48750000,-0.07863501
114511,-0.50200000,-0.05341246
114512,-0.50700000,-0.02967359
114513,-0.51200000,-0.02967359
114514,-0.52150000,0.00296736
114515,-0.53150000,0.01780415
114516,-0.54100000,0.05786350
114517,-0.54100000,0.08308605
114518,-0.54600000,0.13946588
114519,-0.55600000,0.20474777
114520,-0.55100000,0.28635015
114521,-0.55100000,0.34421365
114522,-0.54100000,0.34421365
114523,-0.52650000,0.31899110
114524,-0.50200000,0.27893175
114525,-0.47000000,0.21364985
114526,-0.41500000,0.13946588
114527,-0.35150000,0.07418398
114528,-0.27400000,0.02522255
114529,-0.19600000,0.00296736
114530,-0.10050000,-0.04599407
114531,-0.01350000,-0.06231454
114532,0.06850000,-0.06231454
114533,0.14150000,-0.06231454
114534,0.20050000,-0.06973294
114535,0.25100000,-0.06231454
114536,0.28750000,-0.06231454
114537,0.31500000,-0.05341246
114538,0.31950000,-0.06231454
114539,0.31950000,-0.06231454
114540,0.31000000,-0.03709199
114541,0.28750000,-0.04599407
114542,0.26450000,-0.05341246
114543,0.24200000,-0.03709199
114544,0.21450000,-0.03709199
114545,0.17800000,-0.02967359
114546,0.14150000,-0.04599407
114547,0.10500000,-0.06231454
114548,0.05950000,-0.06973294
114549,0.01800000,-0.06231454
114550,-0.03200000,-0.06231454
114551,-0.07750000,-0.06973294
114552,-0.12300000,-0.06231454
114553,-0.16900000,-0.06231454
114554,-0.21450000,-0.06231454
114555,-0.25100000,-0.03709199
114556,-0.29200000,-0.06231454
114557,-0.31950000,-0.05341246
114558,-0.34200000,0.00148368
114559,-0.36050000,0.21364985
114560,-0.37850000,0.54599407
114561,-0.39250000,0.31008902
114562,-0.39700000,0.05044510
114563,-0.39700000,-0.10237389
114564,-0.40150000,-0.21661721
114565,-0.40150000,-0.11869436
114566,-0.40150000,-0.07863501
114567,-0.39700000,-0.09495549
114568,-0.39700000,-0.11127596
114569,-0.39700000,-0.12759644
114570,-0.40150000,-0.12759644
114571,-0.40150000,-0.07863501
114572,-0.40600000,-0.06973294
114573,-0.41050000,-0.06231454
114574,-0.42000000,-0.09495549
114575,-0.42900000,-0.05341246
114576,-0.43350000,-0.02967359
114577,-0.44700000,-0.01335312
114578,-0.45150000,-0.02967359
114579,-0.46550000,-0.02967359
114580,-0.47000000,-0.01335312
114581,-0.47900000,0.04154303
114582,-0.49300000,0.06676558
114583,-0.49750000,0.14836795
114584,-0.50650000,0.21364985
114585,-0.51100000,0.22997033
114586,-0.52950000,0.24629080
114587,-0.53400000,0.20474777
114588,-0.52250000,0.22997033
114589,-0.51800000,0.18100890
114590,-0.51350000,0.12314540
114591,-0.49600000,0.07418398
114592,-0.46900000,0.01780415
114593,-0.43350000,0.01038576
114594,-0.38400000,-0.02077151
114595,-0.32600000,-0.06231454
114596,-0.25900000,-0.06231454
114597,-0.18750000,-0.06973294
114598,-0.11150000,-0.09495549
114599,-0.04000000,-0.08605341
114600,0.02700000,-0.06231454
114601,0.07600000,-0.06231454
114602,0.11650000,-0.06973294
114603,0.14750000,-0.03709199
114604,0.16550000,0.00296736
114605,0.17450000,0.00296736
114606,0.17450000,0.00296736
114607,0.16550000,-0.02077151
114608,0.15200000,-0.02967359
114609,0.13450000,-0.03709199
114610,0.11200000,-0.02967359
114611,0.08500000,-0.06231454
114612,0.04500000,-0.07863501
114613,0.01800000,-0.06231454
114614,-0.02650000,-0.06231454
114615,-0.07150000,-0.08605341
114616,-0.11150000,-0.06973294
114617,-0.16050000,-0.06973294
114618,-0.20550000,-0.03709199
114619,-0.24550000,0.24629080
114620,-0.29050000,0.62759644
114621,-0.32600000,0.24629080
114622,-0.35750000,-0.00593472
114623,-0.37500000,-0.20029674
114624,-0.39300000,-0.14391691
114625,-0.41100000,-0.06973294
114626,-0.42000000,-0.09495549
114627,-0.42000000,-0.11869436
114628,-0.42450000,-0.11869436
114629,-0.42000000,-0.12759644
114630,-0.42000000,-0.12759644
114631,-0.42000000,-0.16023739
114632,-0.41100000,-0.12759644
114633,-0.41100000,-0.12759644
114634,-0.41100000,-0.12759644
114635,-0.40650000,-0.09495549
114636,-0.41100000,-0.07863501
114637,-0.41100000,-0.06231454
114638,-0.41100000,-0.08605341
114639,-0.41550000,-0.05341246
114640,-0.41550000,0.00296736
114641,-0.42000000,0.01038576
114642,-0.42450000,0.04154303
114643,-0.42900000,0.11572700
114644,-0.43350000,0.17210682
114645,-0.43750000,0.21364985
114646,-0.43350000,0.22997033
114647,-0.43750000,0.20474777
114648,-0.43750000,0.16468843
114649,-0.43350000,0.13204748
114650,-0.42900000,0.09050445
114651,-0.41100000,0.01780415
114652,-0.36150000,0.00296736
114653,-0.31600000,-0.02967359
114654,-0.26600000,-0.06973294
114655,-0.21100000,-0.09495549
114656,-0.13050000,-0.07863501
114657,-0.06550000,-0.06231454
114658,0.01000000,-0.09495549
114659,0.08000000,-0.09495549
114660,0.14550000,-0.08605341
114661,0.19550000,-0.09495549
114662,0.24550000,-0.10237389
114663,0.27550000,-0.06973294
114664,0.28550000,-0.06231454
114665,0.29050000,-0.02967359
114666,0.29050000,-0.02077151
114667,0.27550000,0.00296736
114668,0.26050000,-0.02077151
114669,0.23550000,-0.04599407
114670,0.20550000,-0.06231454
114671,0.17050000,-0.08605341
114672,0.13000000,-0.09495549
114673,0.08000000,-0.09495549
114674,0.03000000,-0.09495549
114675,-0.01500000,-0.09495549
114676,-0.06550000,-0.10237389
114677,-0.11550000,-0.06973294
114678,-0.16550000,-0.07863501
114679,-0.20600000,-0.06231454
114680,-0.24100000,-0.06231454
114681,-0.26600000,-0.06231454
114682,-0.29100000,-0.07863501
114683,-0.31100000,-0.06231454
114684,-0.32100000,-0.06231454
114685,-0.32600000,-0.06973294
114686,-0.33100000,-0.06973294
114687,-0.33100000,-0.03709199
114688,-0.32600000,-0.02967359
114689,-0.32100000,-0.02967359
114690,-0.31600000,-0.05341246
114691,-0.31100000,-0.06231454
114692,-0.30600000,-0.06231454
114693,-0.31100000,-0.08605341
114694,-0.30600000,-0.10237389
114695,-0.31100000,-0.12759644
114696,-0.31100000,-0.11127596
114697,-0.31100000,-0.11127596
114698,-0.32100000,-0.12759644
114699,-0.32600000,-0.11127596
114700,-0.32600000,-0.10237389
114701,-0.33100000,-0.09495549
114702,-0.33600000,-0.07863501
114703,-0.34100000,-0.07863501
114704,-0.35650000,-0.06231454
114705,-0.35650000,-0.06231454
114706,-0.36650000,-0.06231454
114707,-0.37650000,-0.06231454
114708,-0.37650000,-0.02077151
114709,-0.39150000,0.00296736
114710,-0.40150000,0.02670623
114711,-0.40150000,0.23738872
114712,-0.41650000,0.57863501
114713,-0.42650000,0.37537092
114714,-0.42650000,-0.06231454
114715,-0.43650000,-0.28189911
114716,-0.45000000,-0.27448071
114717,-0.46150000,-0.13501484
114718,-0.46150000,-0.11127596
114719,-0.46150000,-0.12759644
114720,-0.46750000,-0.11127596
114721,-0.46750000,-0.09495549
114722,-0.46750000,-0.08605341
114723,-0.46750000,-0.09495549
114724,-0.46750000,-0.07863501
114725,-0.46750000,-0.06231454
114726,-0.46750000,-0.06231454
114727,-0.46750000,-0.06231454
114728,-0.46750000,-0.03709199
114729,-0.46750000,0.00296736
114730,-0.46750000,0.00296736
114731,-0.46150000,0.01780415
114732,-0.45600000,0.01038576
114733,-0.46150000,0.01780415
114734,-0.45600000,0.04154303
114735,-0.45000000,0.06676558
114736,-0.44400000,0.09940653
114737,-0.42650000,0.15578635
114738,-0.40900000,0.19732938
114739,-0.37400000,0.21364985
114740,-0.32150000,0.23738872
114741,-0.25100000,0.24629080
114742,-0.15200000,0.23738872
114743,-0.04100000,0.22997033
114744,0.09350000,0.18100890
114745,0.24550000,0.13204748
114746,0.38550000,0.08308605
114747,0.53200000,0.04154303
114748,0.66050000,0.03412463
114749,0.77750000,0.02522255
114750,0.86500000,0.00296736
114751,0.94650000,-0.02077151
114752,0.98750000,-0.03709199
114753,1.02250000,-0.07863501
114754,1.02350000,-0.09495549
114755,1.02350000,-0.09495549
114756,1.01700000,-0.09495549
114757,0.99350000,-0.06973294
114758,0.97000000,-0.06231454
114759,0.92900000,-0.08605341
114760,0.88850000,-0.06231454
114761,0.84150000,-0.02967359
114762,0.78900000,-0.00445104
114763,0.73650000,-0.01335312
114764,0.68400000,-0.03709199
114765,0.63100000,-0.04599407
114766,0.56100000,-0.04599407
114767,0.49700000,-0.05341246
114768,0.43250000,-0.02967359
114769,0.36800000,-0.00445104
114770,0.29800000,-0.00445104
114771,0.23400000,0.00296736
114772,0.16950000,-0.02967359
114773,0.11100000,-0.02967359
114774,0.06450000,-0.05341246
114775,0.01750000,-0.04599407
114776,-0.01750000,-0.08605341
114777,-0.05850000,-0.09495549
114778,-0.08200000,-0.02967359
114779,-0.10500000,0.22997033
114780,-0.12250000,0.55489614
114781,-0.14600000,0.18100890
114782,-0.16350000,-0.10237389
114783,-0.17550000,-0.27448071
114784,-0.19850000,-0.18397626
114785,-0.21600000,-0.10237389
114786,-0.23350000,-0.09495549
114787,-0.24550000,-0.13501484
114788,-0.26900000,-0.14391691
114789,-0.27450000,-0.12759644
114790,-0.29200000,-0.10237389
114791,-0.30950000,-0.09495549
114792,-0.32700000,-0.09495549
114793,-0.35050000,-0.09495549
114794,-0.36250000,-0.09495549
114795,-0.38550000,-0.09495549
114796,-0.40300000,-0.06231454
114797,-0.42050000,-0.06231454
114798,-0.43800000,-0.06231454
114799,-0.45600000,-0.02967359
114800,-0.47350000,0.00296736
114801,-0.49650000,0.03412463
114802,-0.51400000,0.05044510
114803,-0.52600000,0.07418398
114804,-0.53150000,0.15578635
114805,-0.54950000,0.19732938
114806,-0.55500000,0.19732938
114807,-0.56100000,0.20474777
114808,-0.56100000,0.22997033
114809,-0.54950000,0.19732938
114810,-0.53150000,0.19732938
114811,-0.49100000,0.16468843
114812,-0.45000000,0.13204748
114813,-0.38550000,0.07418398
114814,-0.30400000,0.01038576
114815,-0.21050000,-0.02077151
114816,-0.11100000,-0.06231454
114817,-0.01150000,-0.09495549
114818,0.08750000,-0.09495549
114819,0.17550000,-0.09495549
114820,0.25700000,-0.10237389
114821,0.32150000,-0.09495549
114822,0.36800000,-0.09495549
114823,0.39150000,-0.09495549
114824,0.40350000,-0.09495549
114825,0.40350000,-0.07863501
114826,0.39150000,-0.06231454
114827,0.36800000,-0.06231454
114828,0.33900000,-0.06231454
114829,0.30400000,-0.02967359
114830,0.25700000,-0.02967359
114831,0.21650000,-0.03709199
114832,0.16950000,-0.05341246
114833,0.11100000,-0.02967359
114834,0.05250000,-0.00445104
114835,-0.00600000,-0.00445104
114836,-0.06400000,-0.01335312
114837,-0.12850000,-0.05341246
114838,-0.18700000,-0.04599407
114839,-0.24550000,-0.02967359
114840,-0.29800000,-0.02967359
114841,-0.34450000,-0.01335312
114842,-0.38000000,0.05786350
114843,-0.40300000,0.36795252
114844,-0.43800000,0.61127596
114845,-0.44900000,0.21364985
114846,-0.46050000,0.02670623
114847,-0.46050000,-0.19287834
114848,-0.46650000,-0.17655786
114849,-0.45500000,-0.09495549
114850,-0.45500000,-0.08605341
114851,-0.46050000,-0.10237389
114852,-0.46050000,-0.12759644
114853,-0.45500000,-0.12759644
114854,-0.45500000,-0.11127596
114855,-0.45500000,-0.14391691
114856,-0.46650000,-0.19287834
114857,-0.47200000,-0.15133531
114858,-0.47200000,-0.10237389
114859,-0.47750000,-0.08605341
114860,-0.48350000,-0.05341246
114861,-0.49450000,-0.02967359
114862,-0.49450000,-0.01335312
114863,-0.51200000,0.00296736
114864,-0.51750000,0.00296736
114865,-0.52900000,0.04154303
114866,-0.53450000,0.07418398
114867,-0.54000000,0.11572700
114868,-0.55750000,0.15578635
114869,-0.55750000,0.19732938
114870,-0.56850000,0.21364985
114871,-0.56300000,0.21364985
114872,-0.55750000,0.22997033
114873,-0.55150000,0.17210682
114874,-0.52900000,0.16468843
114875,-0.48900000,0.13204748
114876,-0.42650000,0.07418398
114877,-0.36400000,0.04154303
114878,-0.27850000,0.03412463
114879,-0.19350000,0.01038576
114880,-0.09100000,-0.01335312
114881,0.00000000,-0.06973294
114882,0.10250000,-0.11127596
114883,0.18800000,-0.10237389
114884,0.25600000,-0.09495549
114885,0.31300000,-0.06973294
114886,0.35250000,-0.10237389
114887,0.38100000,-0.12759644
114888,0.38100000,-0.10237389
114889,0.38100000,-0.11127596
114890,0.37000000,-0.06231454
114891,0.34150000,-0.08605341
114892,0.30150000,-0.09495549
114893,0.26750000,-0.07863501
114894,0.22750000,-0.06231454
114895,0.18200000,-0.03709199
114896,0.12500000,0.00296736
114897,0.07400000,0.09050445
114898,0.01700000,0.42433234
114899,-0.03400000,0.57121662
114900,-0.09650000,0.13204748
114901,-0.14800000,-0.07863501
114902,-0.19900000,-0.12759644
114903,-0.24450000,-0.09495549
114904,-0.28450000,-0.11127596
114905,-0.31850000,-0.13501484
114906,-0.34100000,-0.15133531
114907,-0.36400000,-0.16023739
114908,-0.35450000,-0.12759644
114909,-0.32650000,-0.15133531
114910,-0.27000000,-0.12759644
114911,-0.21400000,-0.09495549
114912,-0.15750000,-0.09495549
114913,-0.11250000,-0.11869436
114914,-0.08450000,-0.09495549
114915,-0.06750000,-0.06231454
114916,-0.09000000,-0.06231454
114917,-0.13500000,-0.03709199
114918,-0.19700000,0.01038576
114919,-0.27600000,0.03412463
114920,-0.34900000,0.08308605
114921,-0.40500000,0.09940653
114922,-0.44450000,0.09940653
114923,-0.46700000,0.09940653
114924,-0.47850000,0.11572700
114925,-0.48400000,0.13946588
114926,-0.47850000,0.15578635
114927,-0.47850000,0.13204748
114928,-0.47850000,0.09940653
114929,-0.47250000,0.05786350
114930,-0.46150000,0.01780415
114931,-0.42750000,0.00296736
114932,-0.39400000,-0.02077151
114933,-0.34350000,-0.02967359
114934,-0.28150000,-0.05341246
114935,-0.21400000,-0.06231454
114936,-0.14100000,-0.02967359
114937,-0.06200000,-0.02967359
114938,0.01100000,0.00296736
114939,0.08400000,0.00296736
114940,0.13500000,0.00296736
114941,0.18550000,-0.01335312
114942,0.21350000,-0.03709199
114943,0.23050000,-0.06231454
114944,0.23050000,-0.02967359
114945,0.22500000,-0.02967359
114946,0.20800000,-0.02967359
114947,0.19100000,-0.04599407
114948,0.15750000,-0.03709199
114949,0.11250000,-0.02967359
114950,0.06750000,-0.02967359
114951,0.02250000,-0.02077151
114952,-0.02850000,0.18842730
114953,-0.07900000,0.57121662
114954,-0.13500000,0.22106825
114955,-0.19700000,-0.11869436
114956,-0.24750000,-0.18397626
114957,-0.29250000,-0.06973294
114958,-0.33750000,0.00296736
114959,-0.37150000,-0.00445104
114960,-0.38850000,-0.05341246
114961,-0.41650000,-0.09495549
114962,-0.42750000,-0.09495549
114963,-0.43350000,-0.09495549
114964,-0.44450000,-0.09495549
114965,-0.43900000,-0.09495549
114966,-0.43900000,-0.09495549
114967,-0.43350000,-0.06973294
114968,-0.42200000,-0.06231454
114969,-0.41100000,-0.06231454
114970,-0.39950000,-0.05341246
114971,-0.39400000,-0.02967359
114972,-0.38850000,-0.00445104
114973,-0.38250000,0.02522255
114974,-0.37700000,0.05786350
114975,-0.37700000,0.06676558
114976,-0.38250000,0.14836795
114977,-0.39950000,0.22997033
114978,-0.40500000,0.29525223
114979,-0.41650000,0.32789318
114980,-0.41650000,0.31899110
114981,-0.41650000,0.27893175
114982,-0.41100000,0.20474777
114983,-0.38850000,0.15578635
114984,-0.36000000,0.08308605
114985,-0.31500000,0.05786350
114986,-0.25350000,0.01780415
114987,-0.19150000,0.00296736
114988,-0.11850000,-0.01335312
114989,-0.04500000,-0.01335312
114990,0.03900000,-0.05341246
114991,0.11250000,-0.04599407
114992,0.17400000,-0.02077151
114993,0.22500000,0.00296736
114994,0.26400000,0.01038576
114995,0.28650000,0.02670623
114996,0.30350000,0.05044510
114997,0.30900000,0.06676558
114998,0.30900000,0.09940653
114999,0.30350000,0.05044510
115000,0.29250000,0.01038576
115001,0.28100000,0.00296736
115002,0.25850000,0.00296736
115003,0.23050000,-0.01335312
115004,0.19650000,-0.02967359
115005,0.14050000,-0.02967359
115006,0.09000000,-0.02967359
115007,0.01650000,-0.02967359
115008,-0.05650000,-0.02967359
115009,-0.13500000,-0.02967359
115010,-0.19700000,-0.04599407
115011,-0.25350000,-0.03709199
115012,-0.29850000,-0.06231454
115013,-0.33750000,0.01038576
115014,-0.36600000,0.28635015
115015,-0.38850000,0.66023739
115016,-0.39950000,0.35163205
115017,-0.41650000,0.08308605
115018,-0.42750000,-0.06973294
115019,-0.43350000,-0.06973294
115020,-0.43350000,0.00296736
115021,-0.43900000,0.00296736
115022,-0.43350000,-0.04599407
115023,-0.43350000,-0.05341246
115024,-0.43900000,-0.05341246
115025,-0.42750000,-0.08605341
115026,-0.43350000,-0.09495549
115027,-0.42200000,-0.06231454
115028,-0.42200000,-0.06973294
115029,-0.41100000,-0.05341246
115030,-0.39950000,-0.02077151
115031,-0.39400000,0.00296736
115032,-0.37700000,0.00296736
115033,-0.36600000,0.00296736
115034,-0.35450000,0.04154303
115035,-0.33750000,0.08308605
115036,-0.34800000,0.10682493
115037,-0.33350000,0.13204748
115038,-0.32600000,0.12314540
115039,-0.31850000,0.16468843
115040,-0.31850000,0.16468843
115041,-0.31100000,0.18100890
115042,-0.28900000,0.18100890
115043,-0.25950000,0.19732938
115044,-0.21500000,0.15578635
115045,-0.14800000,0.13946588
115046,-0.06700000,0.11572700
115047,0.02950000,0.06676558
115048,0.14800000,0.01780415
115049,0.25900000,0.00296736
115050,0.38500000,0.00296736
115051,0.50350000,-0.01335312
115052,0.59250000,-0.02967359
115053,0.66650000,0.00296736
115054,0.71100000,0.04154303
115055,0.73300000,0.06676558
115056,0.73300000,0.04154303
115057,0.70350000,0.01038576
115058,0.67400000,0.01038576
115059,0.61450000,-0.01335312
115060,0.54800000,0.00296736
115061,0.47400000,0.00296736
115062,0.40700000,0.00296736
115063,0.32600000,0.00296736
115064,0.25150000,-0.01335312
115065,0.16300000,-0.02967359
115066,0.06650000,-0.01335312
115067,-0.01500000,-0.02077151
115068,-0.11100000,-0.00445104
115069,-0.20000000,0.00296736
115070,-0.28150000,0.00296736
115071,-0.37800000,0.00296736
115072,-0.45950000,0.00296736
115073,-0.53350000,0.01780415
115074,-0.60000000,0.01038576
115075,-0.65200000,0.00296736
115076,-0.70350000,-0.02077151
115077,-0.74050000,-0.02967359
115078,-0.76300000,-0.02967359
115079,-0.78500000,-0.02967359
115080,-0.80000000,-0.02967359
115081,-0.82200000,-0.02077151
115082,-0.82200000,-0.05341246
115083,-0.82950000,-0.06973294
115084,-0.83700000,-0.03709199
115085,-0.84450000,-0.06231454
115086,-0.84450000,-0.05341246
115087,-0.85900000,-0.06231454
115088,-0.85200000,-0.05341246
115089,-0.85200000,-0.06231454
115090,-0.85200000,-0.04599407
115091,-0.84450000,-0.02967359
115092,-0.83700000,-0.01335312
115093,-0.83700000,0.02670623
115094,-0.82950000,0.07418398
115095,-0.83700000,0.07418398
115096,-0.83700000,0.19732938
115097,-0.84450000,0.54599407
115098,-0.85200000,0.52967359
115099,-0.85200000,0.08308605
115100,-0.88900000,-0.07863501
115101,-0.89600000,-0.29080119
115102,-0.89600000,-0.23293769
115103,-0.89600000,-0.13501484
115104,-0.89600000,-0.15133531
115105,-0.89600000,-0.07863501
115106,-0.87400000,-0.08605341
115107,-0.86650000,-0.07863501
115108,-0.83700000,-0.04599407
115109,-0.81500000,-0.02967359
115110,-0.78500000,0.00296736
115111,-0.74050000,0.00296736
115112,-0.71100000,0.00296736
115113,-0.66650000,0.04154303
115114,-0.62950000,0.05044510
115115,-0.57800000,0.05786350
115116,-0.53350000,0.02522255
115117,-0.48150000,0.01038576
115118,-0.43700000,0.00296736
115119,-0.39250000,0.00296736
115120,-0.34800000,0.00296736
115121,-0.30350000,0.00296736
115122,-0.24450000,0.01038576
115123,-0.18500000,0.01780415
115124,-0.10400000,0.02522255
115125,-0.00750000,0.03412463
115126,0.11100000,0.03412463
115127,0.24450000,0.02522255
115128,0.40750000,0.00296736
115129,0.58500000,0.00296736
115130,0.78500000,0.00296736
115131,0.99250000,-0.02967359
115132,1.02350000,-0.04599407
115133,1.02350000,-0.02967359
115134,1.02350000,-0.02967359
115135,1.02350000,-0.00445104
115136,1.02350000,0.00296736
115137,1.02350000,-0.04599407
115138,1.02350000,-0.09495549
115139,1.02350000,-0.11127596
115140,1.02350000,-0.12759644
115141,1.02350000,-0.16765579
115142,1.02350000,-0.20029674
115143,1.02350000,-0.24925816
115144,1.02350000,-0.28189911
115145,1.02350000,-0.31454006
115146,1.02350000,-0.33976261
115147,1.02350000,-0.41246291
115148,1.02350000,-0.38872404
115149,1.02350000,-0.41246291
115150,1.02350000,-0.33976261
115151,1.02350000,-0.27448071
115152,1.02350000,-0.22551929
115153,1.02350000,-0.20919881
115154,1.02350000,-0.16023739
115155,1.02350000,-0.11869436
115156,1.02350000,-0.13501484
115157,1.02350000,-0.19287834
115158,1.02350000,-0.23293769
115159,0.92550000,-0.24183976
115160,0.82950000,-0.25816024
115161,0.73300000,-0.26557864
115162,0.65150000,-0.21661721
115163,0.57000000,-0.18397626
115164,0.49600000,-0.15133531
115165,0.40000000,-0.11127596
115166,0.31850000,-0.09495549
115167,0.20750000,-0.11869436
115168,0.09600000,-0.25816024
115169,-0.01500000,-0.46884273
115170,-0.12600000,-0.93323442
115171,-0.23700000,-1.38872404
115172,-0.35550000,-1.46142433
115173,-0.45200000,-1.33086053
115174,-0.54050000,-1.05489614
115175,-0.62950000,-0.68842730
115176,-0.69650000,-0.41246291
115177,-0.76300000,-0.20919881
115178,-0.80750000,-0.13501484
115179,-0.84450000,-0.04599407
115180,-0.88150000,0.01780415
115181,-0.91100000,0.14836795
115182,-0.93350000,0.24629080
115183,-0.96300000,0.26261128
115184,-0.99250000,0.28635015
115185,-1.00750000,0.29525223
115186,-,0.30267062
115187,-,0.35163205
115188,-,0.44213650
115189,-,0.51335312
115190,-,0.56231454
115191,-,0.62759644
115192,-,0.71810089
115193,-,0.80712166
115194,-,0.90504451
115195,-,0.94510386
115196,-,0.96142433
115197,-,0.96142433
115198,-,0.88872404
115199,-,0.75816024
115200,-,0.55489614
115201,-0.97050000,0.36053412
115202,-0.88900000,0.17210682
115203,-0.80750000,0.00148368
115204,-0.70350000,-0.14391691
115205,-0.57800000,-0.29080119
115206,-0.45200000,-0.37240356
115207,-0.31100000,-0.46884273
115208,-0.16300000,-0.54154303
115209,-0.02250000,-0.60682493
115210,0.11850000,-0.61572700
115211,0.23700000,-0.60682493
115212,0.34050000,-0.58308605
115213,0.42950000,-0.58308605
115214,0.48150000,-0.58308605
115215,0.51850000,-0.57418398
115216,0.53300000,-0.55044510
115217,0.52600000,-0.50148368
115218,0.49600000,-0.44510386
115219,0.45900000,-0.38872404
115220,0.40000000,-0.35608309
115221,0.34800000,-0.37240356
115222,0.27400000,-0.37982196
115223,0.20000000,-0.33976261
115224,0.13300000,-0.32344214
115225,0.07400000,-0.30712166
115226,0.00000000,-0.29821958
115227,-0.06650000,-0.24183976
115228,-0.27400000,-0.22551929
115229,-0.31850000,-0.21661721
115230,-0.34050000,-0.19287834
115231,-0.37800000,-0.19287834
115232,-0.38500000,-0.17655786
115233,-0.40000000,-0.14391691
115234,-0.39250000,-0.10237389
115235,-0.36300000,-0.05341246
115236,-0.34050000,-0.02077151
115237,-0.29650000,0.00296736
115238,-0.25200000,0.00296736
115239,-0.18500000,0.00296736
115240,-0.11850000,0.00296736
115241,-0.04450000,0.01038576
115242,0.03700000,0.00296736
115243,0.11850000,0.01038576
115244,0.20750000,0.03412463
115245,0.28900000,0.01038576
115246,0.38500000,0.00296736
115247,0.46650000,0.00296736
115248,0.54800000,0.02522255
115249,0.63700000,0.03412463
115250,0.71850000,0.03412463
115251,0.80000000,0.03412463
115252,0.88150000,0.01780415
115253,0.95550000,0.04154303
115254,1.02200000,0.09940653
115255,1.02350000,0.08308605
115256,1.02350000,0.06676558
115257,1.02350000,0.06676558
115258,1.02350000,0.07418398
115259,1.02350000,0.10682493
115260,1.02350000,0.27893175
115261,1.02350000,0.70178042
115262,1.02350000,0.64391691
115263,1.02350000,0.13204748
115264,1.02350000,-0.08605341
115265,1.02350000,-0.10237389
115266,1.02350000,0.02670623
115267,1.02350000,0.06676558
115268,1.02350000,0.06676558
115269,1.02350000,0.06676558
115270,1.02350000,0.06676558
115271,0.94050000,0.07418398
115272,0.84450000,0.09050445
115273,0.72600000,0.09940653
115274,0.62200000,0.09940653
115275,0.51850000,0.09940653
115276,0.41450000,0.09940653
115277,0.31850000,0.08308605
115278,0.22200000,0.08308605
115279,0.14050000,0.09940653
115280,0.06650000,0.09940653
115281,-0.01500000,0.13946588
115282,-0.06650000,0.18100890
115283,-0.12600000,0.22997033
115284,-0.17800000,0.25370920
115285,-0.21500000,0.30267062
115286,-0.23700000,0.30267062
115287,-0.24450000,0.34421365
115288,-0.23700000,0.41691395
115289,-0.20000000,0.46587537
115290,-0.14100000,0.48071217
115291,-0.05200000,0.46587537
115292,0.04800000,0.43323442
115293,0.14000000,0.38427300
115294,0.24150000,0.31899110
115295,0.36200000,0.22106825
115296,0.48250000,0.13946588
115297,0.59850000,0.09940653
115298,0.70500000,0.06676558
115299,0.79150000,0.01038576
115300,0.85950000,0.06676558
115301,0.90250000,0.06676558
115302,0.92700000,0.04154303
115303,0.94150000,0.06676558
115304,0.93150000,0.05044510
115305,0.90750000,0.04154303
115306,0.87850000,0.05044510
115307,0.84000000,0.05786350
115308,0.79650000,0.03412463
115309,0.75300000,0.04154303
115310,0.70000000,0.02522255
115311,0.65150000,0.00296736
115312,0.59850000,0.00296736
115313,0.54050000,0.01038576
115314,0.48250000,0.03412463
115315,0.42450000,0.00296736
115316,0.35700000,-0.02967359
115317,0.29450000,-0.00445104
115318,0.23650000,-0.02077151
115319,0.16400000,-0.07863501
115320,0.10600000,-0.08605341
115321,0.05300000,-0.07863501
115322,0.00450000,-0.11127596
115323,-0.03400000,-0.12759644
115324,-0.07250000,-0.09495549
115325,-0.10150000,-0.11869436
115326,-0.11100000,-0.15133531
115327,-0.13050000,-0.11127596
115328,-0.13050000,-0.13501484
115329,-0.13550000,-0.16023739
115330,-0.13050000,-0.16023739
115331,-0.12550000,-0.12759644
115332,-0.12550000,-0.14391691
115333,-0.12550000,-0.13501484
115334,-0.12550000,-0.15133531
115335,-0.13550000,-0.16023739
115336,-0.15000000,-0.17655786
115337,-0.16450000,-0.16765579
115338,-0.19800000,-0.16023739
115339,-0.22700000,-0.15133531
115340,-0.26550000,-0.16023739
115341,-0.31400000,-0.14391691
115342,-0.35750000,-0.12759644
115343,-0.41050000,-0.11127596
115344,-0.45900000,-0.09495549
115345,-0.50700000,-0.11127596
115346,-0.55050000,-0.15133531
115347,-0.59900000,-0.16765579
115348,-0.63250000,-0.16765579
115349,-0.66150000,-0.17655786
115350,-0.69550000,-0.16023739
115351,-0.71000000,-0.11869436
115352,-0.71950000,0.05044510
115353,-0.71450000,0.41691395
115354,-0.70500000,0.26261128
115355,-0.68100000,-0.12759644
115356,-0.70000000,-0.29821958
115357,-0.66150000,-0.40504451
115358,-0.61800000,-0.30712166
115359,-0.57900000,-0.20919881
115360,-0.53600000,-0.19287834
115361,-0.49250000,-0.18397626
115362,-0.45850000,-0.16023739
115363,-0.42950000,-0.16023739
115364,-0.41500000,-0.14391691
115365,-0.40050000,-0.14391691
115366,-0.39600000,-0.16023739
115367,-0.40550000,-0.16023739
115368,-0.41500000,-0.19287834
115369,-0.42450000,-0.19287834
115370,-0.43900000,-0.16765579
115371,-0.46350000,-0.15133531
115372,-0.48750000,-0.11127596
115373,-0.51650000,-0.09495549
115374,-0.55500000,-0.07863501
115375,-0.58900000,-0.06231454
115376,-0.62250000,-0.04599407
115377,-0.65650000,0.00296736
115378,-0.69500000,0.02522255
115379,-0.72400000,0.03412463
115380,-0.75800000,0.03412463
115381,-0.77700000,0.05786350
115382,-0.78200000,0.06676558
115383,-0.78200000,0.11572700
115384,-0.76750000,0.10682493
115385,-0.72900000,0.05044510
115386,-0.67600000,-0.00445104
115387,-0.60800000,-0.06231454
115388,-0.53100000,-0.10237389
115389,-0.44900000,-0.12759644
115390,-0.35700000,-0.16023739
115391,-0.27500000,-0.16023739
115392,-0.19800000,-0.17655786
115393,-0.14450000,-0.16023739
115394,-0.09650000,-0.18397626
115395,-0.05800000,-0.20029674
115396,-0.04350000,-0.20029674
115397,-0.03850000,-0.19287834
115398,-0.05300000,-0.19287834
115399,-0.07700000,-0.20919881
115400,-0.10600000,-0.16023739
115401,-0.15450000,-0.12759644
115402,-0.20750000,-0.12759644
115403,-0.26050000,-0.12759644
115404,-0.32800000,-0.12759644
115405,-0.40050000,-0.14391691
115406,-0.46800000,-0.15133531
115407,-0.54550000,-0.12759644
115408,-0.61800000,-0.15133531
115409,-0.69500000,-0.15133531
115410,-0.77700000,-0.11127596
115411,-0.85450000,-0.11869436
115412,-0.93150000,-0.11127596
115413,-1.00900000,-0.10237389
115414,-,-0.16023739
115415,-,-0.09495549
115416,-,0.13204748
115417,-,0.48961424
115418,-,0.11572700
115419,-,-0.22551929
115420,-,-0.36350148
115421,-,-0.24183976
115422,-,-0.15133531
115423,-,-0.15133531
115424,-,-0.16023739
115425,-,-0.16023739
115426,-,-0.17655786
115427,-,-0.20029674
115428,-,-0.14391691
115429,-,-0.12759644
115430,-,-0.16023739
115431,-,-0.12759644
115432,-,-0.12759644
115433,-,-0.14391691
115434,-,-0.06973294
115435,-,-0.08605341
115436,-,-0.08605341
115437,-,-0.03709199
115438,-,0.00296736
115439,-,0.02522255
115440,-,0.05044510
115441,-,0.12314540
115442,-,0.13946588
115443,-,0.16468843
115444,-,0.18100890
115445,-,0.18842730
115446,-,0.17210682
115447,-,0.09940653
115448,-,0.05786350
115449,-,0.01038576
115450,-,-0.01335312
115451,-,-0.06231454
115452,-,-0.11869436
115453,-,-0.08605341
115454,-,-0.06973294
115455,-,-0.14391691
115456,-,-0.15133531
115457,-0.94600000,-0.11869436
115458,-0.84500000,-0.16023739
115459,-0.76250000,-0.17655786
115460,-0.69050000,-0.15133531
115461,-0.63700000,-0.16023739
115462,-0.58900000,-0.17655786
115463,-0.56950000,-0.18397626
115464,-0.56500000,-0.12759644
115465,-0.56950000,-0.11869436
115466,-0.58900000,-0.09495549
115467,-0.61300000,-0.06231454
115468,-0.63700000,-0.02967359
115469,-0.66150000,-0.01335312
115470,-0.67600000,-0.00445104
115471,-0.70000000,-0.04599407
115472,-0.71450000,-0.04599407
115473,-0.73850000,-0.01335312
115474,-0.75300000,-0.02967359
115475,-0.77700000,-0.02967359
115476,-0.79650000,-0.02967359
115477,-0.81100000,-0.03709199
115478,-0.82050000,-0.07863501
115479,-0.82550000,-0.09495549
115480,-0.82050000,-0.06973294
115481,-0.81600000,-0.06231454
115482,-0.80150000,-0.08605341
115483,-0.78200000,-0.06231454
115484,-0.75800000,-0.06973294
115485,-0.72400000,-0.06231454
115486,-0.69500000,-0.10237389
115487,-0.67100000,-0.11869436
115488,-0.64200000,-0.07863501
115489,-0.61300000,-0.05341246
115490,-0.58400000,-0.02967359
115491,-0.56000000,-0.04599407
115492,-0.54050000,-0.06231454
115493,-0.52600000,-0.05341246
115494,-0.50700000,-0.04599407
115495,-0.49250000,-0.02077151
115496,-0.47800000,0.02670623
115497,-0.46350000,0.26261128
115498,-0.44900000,0.61127596
115499,-0.43450000,0.27002967
115500,-0.42450000,-0.05341246
115501,-0.41050000,-0.26557864
115502,-0.39600000,-0.34718101
115503,-0.39100000,-0.24183976
115504,-0.37650000,-0.17655786
115505,-0.36200000,-0.16023739
115506,-0.35250000,-0.13501484
115507,-0.34250000,-0.11869436
115508,-0.34250000,-0.06231454
115509,-0.33300000,-0.06231454
115510,-0.32350000,-0.06231454
115511,-0.31850000,-0.06231454
115512,-0.30900000,-0.06231454
115513,-0.30400000,-0.06231454
115514,-0.29900000,-0.03709199
115515,-0.29450000,-0.01335312
115516,-0.28450000,-0.01335312
115517,-0.28000000,-0.02967359
115518,-0.27500000,0.00296736
115519,-0.26050000,0.00296736
115520,-0.25600000,0.02522255
115521,-0.25100000,0.05786350
115522,-0.23150000,0.09940653
115523,-0.21700000,0.09940653
115524,-0.20250000,0.10682493
115525,-0.18350000,0.17210682
115526,-0.14450000,0.19732938
115527,-0.10600000,0.22106825
115528,-0.05800000,0.22997033
115529,0.01000000,0.22106825
115530,0.08700000,0.15578635
115531,0.17400000,0.09940653
115532,0.28000000,0.04154303
115533,0.37650000,-0.01335312
115534,0.47350000,-0.02967359
115535,0.57000000,-0.06231454
115536,0.64700000,-0.06231454
115537,0.71450000,-0.06231454
115538,0.77250000,-0.06231454
115539,0.81600000,-0.08605341
115540,0.84500000,-0.09495549
115541,0.85950000,-0.09495549
115542,0.85450000,-0.11869436
115543,0.84500000,-0.12759644
115544,0.82550000,-0.15133531
115545,0.80150000,-0.11127596
115546,0.76800000,-0.09495549
115547,0.73400000,-0.07863501
115548,0.69050000,-0.06231454
115549,0.63750000,-0.02967359
115550,0.58450000,0.00296736
115551,0.53100000,-0.01335312
115552,0.46350000,0.00296736
115553,0.40100000,0.00296736
115554,0.32850000,0.00296736
115555,0.26100000,-0.00445104
115556,0.18850000,0.00296736
115557,0.12100000,0.00296736
115558,0.05300000,-0.01335312
115559,0.00000000,-0.00445104
115560,-0.04800000,-0.02967359
115561,-0.08700000,-0.03709199
115562,-0.11550000,-0.06231454
115563,-0.14450000,-0.06231454
115564,-0.15900000,-0.06973294
115565,-0.17350000,-0.06973294
115566,-0.18350000,-0.06231454
115567,-0.19300000,-0.02967359
115568,-0.20250000,-0.02967359
115569,-0.21250000,-0.00445104
115570,-0.21700000,0.00296736
115571,-0.22200000,0.05044510
115572,-0.23650000,0.08308605
115573,-0.24150000,0.14836795
115574,-0.24150000,0.19732938
115575,-0.24150000,0.30267062
115576,-0.25100000,0.58753709
115577,-0.24600000,0.44955490
115578,-0.25100000,-0.13501484
115579,-0.24600000,-0.33976261
115580,-0.25100000,-0.33086053
115581,-0.24600000,-0.20919881
115582,-0.24600000,-0.10237389
115583,-0.24150000,-0.06973294
115584,-0.23650000,-0.07863501
115585,-0.22700000,-0.08605341
115586,-0.21700000,-0.06231454
115587,-0.21250000,-0.02967359
115588,-0.20250000,-0.02077151
115589,-0.19800000,0.00296736
115590,-0.18800000,0.00296736
115591,-0.18350000,0.03412463
115592,-0.18350000,0.04154303
115593,-0.17850000,0.06676558
115594,-0.17350000,0.09940653
115595,-0.16900000,0.14836795
115596,-0.16900000,0.16468843
115597,-0.15900000,0.21364985
115598,-0.16400000,0.22997033
115599,-0.15450000,0.28635015
115600,-0.15450000,0.35163205
115601,-0.14450000,0.37685460
115602,-0.13000000,0.39317507
115603,-0.12050000,0.39317507
115604,-0.10150000,0.38427300
115605,-0.07250000,0.37685460
115606,-0.03350000,0.31157270
115607,0.01000000,0.23738872
115608,0.06750000,0.21364985
115609,0.14500000,0.15578635
115610,0.22700000,0.08308605
115611,0.30900000,0.04154303
115612,0.39600000,0.03412463
115613,0.46850000,0.03412463
115614,0.54100000,0.02522255
115615,0.59900000,0.01780415
115616,0.63250000,0.02522255
115617,0.65700000,0.00296736
115618,0.66650000,0.00296736
115619,0.65700000,0.02522255
115620,0.62800000,0.03412463
115621,0.58900000,0.03412463
115622,0.54550000,0.01780415
115623,0.49250000,0.00296736
115624,0.43450000,0.02522255
115625,0.37650000,0.00296736
115626,0.31400000,0.00296736
115627,0.26100000,0.00296736
115628,0.20300000,0.02522255
115629,0.15000000,0.03412463
115630,0.10650000,0.03412463
115631,0.07250000,0.03412463
115632,0.03400000,0.03412463
115633,0.00500000,0.03412463
115634,-0.01900000,0.01780415
115635,-0.04350000,0.01780415
115636,-0.06750000,0.03412463
115637,-0.09150000,0.00296736
115638,-0.12050000,0.03412463
115639,-0.14000000,0.02522255
115640,-0.17350000,0.00296736
115641,-0.20750000,0.00296736
115642,-0.22700000,0.00296736
115643,-0.25600000,0.00296736
115644,-0.28450000,0.00296736
115645,-0.31350000,0.00296736
115646,-0.32800000,0.00296736
115647,-0.35700000,0.00296736
115648,-0.37650000,-0.00445104
115649,-0.39100000,-0.01335312
115650,-0.41050000,0.00296736
115651,-0.42000000,0.00296736
115652,-0.43450000,0.00296736
115653,-0.45350000,0.01780415
115654,-0.47300000,0.04154303
115655,-0.48750000,0.12314540
115656,-0.50200000,0.44955490
115657,-0.52150000,0.70178042
115658,-0.54050000,0.21364985
115659,-0.56500000,-0.12759644
115660,-0.58400000,-0.28189911
115661,-0.60800000,-0.17655786
115662,-0.63250000,-0.03709199
115663,-0.64700000,-0.02967359
115664,-0.67100000,-0.02967359
115665,-0.69050000,-0.06231454
115666,-0.70500000,-0.06231454
115667,-0.71950000,-0.03709199
115668,-0.73350000,-0.02967359
115669,-0.75300000,-0.02967359
115670,-0.75800000,-0.02967359
115671,-0.75800000,-0.04599407
115672,-0.76250000,0.01038576
115673,-0.76250000,0.03412463
115674,-0.76750000,0.00296736
115675,-0.75800000,0.00296736
115676,-0.75300000,0.00296736
115677,-0.74800000,0.02522255
115678,-0.73350000,0.05044510
115679,-0.72400000,0.10682493
115680,-0.71950000,0.15578635
115681,-0.70950000,0.18842730
115682,-0.70000000,0.27002967
115683,-0.68050000,0.29525223
115684,-0.65650000,0.33531157
115685,-0.63700000,0.36795252
115686,-0.59350000,0.37685460
115687,-0.53100000,0.32789318
115688,-0.46800000,0.28635015
115689,-0.38150000,0.20474777
115690,-0.28950000,0.12314540
115691,-0.18800000,0.09940653
115692,-0.08200000,0.08308605
115693,0.01450000,0.08308605
115694,0.11100000,0.02670623
115695,0.18850000,-0.02077151
115696,0.25100000,-0.00445104
115697,0.29450000,-0.04599407
115698,0.32350000,-0.07863501
115699,0.33800000,-0.09495549
115700,0.32850000,-0.09495549
115701,0.31900000,-0.09495549
115702,0.29000000,-0.06231454
115703,0.25600000,-0.03709199
115704,0.21250000,-0.06231454
115705,0.15950000,-0.06231454
115706,0.10650000,-0.07863501
115707,0.04850000,-0.03709199
115708,-0.01450000,0.00296736
115709,-0.07700000,-0.02077151
115710,-0.14450000,-0.05341246
115711,-0.20750000,-0.00445104
115712,-0.27500000,0.01780415
115713,-0.33800000,0.01780415
115714,-0.39600000,0.01780415
115715,-0.45850000,0.00296736
115716,-0.50700000,0.00296736
115717,-0.56000000,-0.02967359
115718,-0.60350000,0.01780415
115719,-0.65150000,0.36795252
115720,-0.68550000,0.58753709
115721,-0.71450000,0.13946588
115722,-0.74350000,-0.01335312
115723,-0.76250000,-0.16023739
115724,-0.77700000,-0.11127596
115725,-0.78700000,-0.00445104
115726,-0.80150000,0.00296736
115727,-0.79650000,-0.02077151
115728,-0.80150000,-0.06973294
115729,-0.80150000,-0.01335312
115730,-0.79650000,0.03412463
115731,-0.79650000,0.01038576
115732,-0.79150000,0.03412463
115733,-0.78700000,0.01038576
115734,-0.78700000,0.01780415
115735,-0.78700000,0.00296736
115736,-0.79150000,0.00296736
115737,-0.79650000,0.01780415
115738,-0.80600000,0.01038576
115739,-0.82050000,0.02522255
115740,-0.72450000,0.05044510
115741,-0.73900000,0.13946588
115742,-0.74850000,0.14836795
115743,-0.75800000,0.20474777
115744,-0.75800000,0.31157270
115745,-0.76300000,0.30267062
115746,-0.75800000,0.32789318
115747,-0.74350000,0.40949555
115748,-0.72900000,0.42581602
115749,-0.71000000,0.33531157
115750,-0.69050000,0.31899110
115751,-0.66150000,0.22997033
115752,-0.63750000,0.18842730
115753,-0.60350000,0.11572700
115754,-0.56000000,0.03412463
115755,-0.50700000,0.00296736
115756,-0.43950000,0.00296736
115757,-0.36700000,0.00296736
115758,-0.28500000,0.00296736
115759,-0.20750000,0.00296736
115760,-0.11600000,0.00296736
115761,-0.04350000,0.00296736
115762,0.03350000,0.00296736
115763,0.09150000,0.00296736
115764,0.14000000,0.00296736
115765,0.17350000,0.01780415
115766,0.19800000,0.00296736
115767,0.21250000,0.05044510
115768,0.21250000,0.03412463
115769,0.21250000,0.00296736
115770,0.20750000,0.00296736
115771,0.19800000,0.02670623
115772,0.18350000,0.10682493
115773,0.17350000,0.12314540
115774,0.16400000,0.09050445
115775,0.14500000,0.01780415
115776,0.13050000,0.00296736
115777,0.11100000,0.00296736
115778,0.08700000,0.00296736
115779,0.06750000,0.00296736
115780,0.04800000,-0.02077151
115781,0.03350000,0.00296736
115782,0.01450000,0.00296736
115783,0.00450000,0.00296736
115784,-0.00500000,-0.01335312
115785,-0.00950000,-0.02077151
115786,0.00000000,-0.02967359
115787,0.00450000,0.00296736
115788,0.01900000,0.00296736
115789,0.03350000,-0.02077151
115790,0.05300000,0.02670623
115791,0.07250000,0.24629080
115792,0.08700000,0.65281899
115793,0.10600000,0.60385757
115794,0.11600000,0.14836795
115795,0.12050000,-0.06973294
115796,0.11600000,-0.23293769
115797,0.10600000,-0.11127596
115798,0.09650000,-0.06231454
115799,0.07700000,-0.06973294
115800,0.04800000,-0.09495549
115801,0.00950000,-0.10237389
115802,-0.01950000,-0.09495549
115803,-0.06300000,-0.09495549
115804,-0.10650000,-0.09495549
115805,-0.15000000,-0.09495549
115806,-0.18850000,-0.08605341
115807,-0.23650000,-0.07863501
115808,-0.28000000,-0.06231454
115809,-0.31400000,-0.05341246
115810,-0.35250000,-0.04599407
115811,-0.38650000,-0.02967359
115812,-0.42000000,0.01038576
115813,-0.45400000,0.07418398
115814,-0.49250000,0.13204748
115815,-0.52650000,0.16468843
115816,-0.56500000,0.21364985
115817,-0.60350000,0.26261128
115818,-0.64200000,0.28635015
115819,-0.68550000,0.24629080
115820,-0.71950000,0.31157270
115821,-0.74350000,0.29525223
115822,-0.75800000,0.26261128
115823,-0.76300000,0.16468843
115824,-0.75350000,0.17210682
115825,-0.72450000,0.04154303
115826,-0.68100000,0.01038576
115827,-0.63250000,-0.03709199
115828,-0.57000000,-0.02967359
115829,-0.50700000,-0.06973294
115830,-0.43950000,-0.11127596
115831,-0.39100000,-0.16023739
115832,-0.34750000,-0.12759644
115833,-0.32350000,-0.13501484
115834,-0.31850000,-0.15133531
115835,-0.32350000,-0.06973294
115836,-0.33800000,-0.07863501
115837,-0.37200000,-0.06231454
115838,-0.40550000,-0.15133531
115839,-0.44900000,-0.13501484
115840,-0.49250000,-0.09495549
115841,-0.54100000,-0.10237389
115842,-0.59400000,-0.14391691
115843,-0.64200000,-0.14391691
115844,-0.70000000,-0.15133531
115845,-0.75800000,-0.15133531
115846,-0.83050000,-0.16023739
115847,-0.90300000,-0.11127596
115848,-0.97550000,-0.11127596
115849,-,-0.06973294
115850,-,-0.07863501
115851,-,-0.07863501
115852,-,-0.11869436
115853,-,-0.05341246
115854,-,0.00296736
115855,-,0.00296736
115856,-,0.03412463
115857,-,0.01038576
115858,-,0.00296736
115859,-,-0.02077151
115860,-,-0.02077151
115861,-,-0.07863501
115862,-,-0.06231454
115863,-,-0.07863501
115864,-,-0.06973294
115865,-,-0.02077151
115866,-,-0.01335312
115867,-0.99950000,-0.05341246
115868,-0.77250000,-0.11127596
115869,-0.68550000,-0.09495549
115870,-0.59900000,-0.06231454
115871,-0.51200000,-0.06231454
115872,-0.43450000,-0.09495549
115873,-0.35750000,-0.09495549
115874,-0.29000000,-0.09495549
115875,-0.22700000,-0.08605341
115876,-0.16450000,-0.03709199
115877,-0.10650000,-0.07863501
115878,-0.03850000,-0.09495549
115879,0.01900000,-0.12759644
115880,0.08700000,-0.14391691
115881,0.15450000,-0.17655786
115882,0.23150000,-0.16765579
115883,0.30400000,-0.15133531
115884,0.37650000,-0.11127596
115885,0.44900000,0.07566766
115886,0.52600000,0.53857567
115887,0.58400000,0.35905045
115888,0.63700000,-0.15133531
115889,0.68550000,-0.40504451
115890,0.72400000,-0.40504451
115891,0.74850000,-0.24925816
115892,0.76750000,-0.21661721
115893,0.76750000,-0.13501484
115894,0.76250000,-0.11127596
115895,0.75300000,-0.09495549
115896,0.72900000,-0.10237389
115897,0.70500000,-0.15133531
115898,0.68050000,-0.18397626
115899,0.65150000,-0.16023739
115900,0.61800000,-0.16023739
115901,0.57450000,-0.15133531
115902,0.53100000,-0.16023739
115903,0.49700000,-0.12759644
115904,0.45350000,-0.13501484
115905,0.41050000,-0.11127596
115906,0.37650000,-0.04599407
115907,0.33300000,-0.02967359
115908,0.29900000,-0.00445104
115909,0.26050000,0.03412463
115910,0.22700000,0.08308605
115911,0.20250000,0.14836795
115912,0.17850000,0.19732938
115913,0.16400000,0.23738872
115914,0.16400000,0.27893175
115915,0.17850000,0.31899110
115916,0.19800000,0.32789318
115917,0.24600000,0.25370920
115918,0.29450000,0.17210682
115919,0.35250000,0.08308605
115920,0.42950000,0.01038576
115921,0.50200000,-0.02967359
115922,0.57450000,-0.07863501
115923,0.64200000,-0.14391691
115924,0.69500000,-0.16023739
115925,0.74350000,-0.20919881
115926,0.76750000,-0.16023739
115927,0.78200000,-0.18397626
115928,0.78700000,-0.19287834
115929,0.77250000,-0.18397626
115930,0.75300000,-0.16023739
115931,0.72900000,-0.16023739
115932,0.69050000,-0.16023739
115933,0.65150000,-0.14391691
115934,0.60800000,-0.10237389
115935,0.55500000,-0.06973294
115936,0.51150000,-0.04599407
115937,0.45850000,-0.02967359
115938,0.41500000,-0.03709199
115939,0.35700000,-0.06973294
115940,0.30400000,-0.08605341
115941,0.25100000,-0.09495549
115942,0.20250000,-0.15133531
115943,0.14450000,-0.19287834
115944,0.09150000,-0.16765579
115945,0.03350000,0.09940653
115946,-0.02400000,0.44065282
115947,-0.07250000,0.06676558
115948,-0.12100000,-0.24183976
115949,-0.16900000,-0.30712166
115950,-0.20750000,-0.17655786
115951,-0.24650000,-0.12759644
115952,-0.27550000,-0.16023739
115953,-0.29450000,-0.19287834
115954,-0.32350000,-0.20029674
115955,-0.34300000,-0.23293769
115956,-0.35250000,-0.19287834
115957,-0.37200000,-0.20029674
115958,-0.39100000,-0.22551929
115959,-0.40100000,-0.24183976
115960,-0.41550000,-0.25816024
115961,-0.42000000,-0.23293769
115962,-0.43000000,-0.25816024
115963,-0.43450000,-0.26557864
115964,-0.43950000,-0.24183976
115965,-0.43450000,-0.17655786
115966,-0.43000000,-0.11127596
115967,-0.42500000,-0.06973294
115968,-0.41550000,-0.02077151
115969,-0.40550000,0.00296736
115970,-0.39600000,0.01780415
115971,-0.38150000,0.05044510
115972,-0.38150000,0.06676558
115973,-0.37650000,0.08308605
115974,-0.38650000,0.10682493
115975,-0.39100000,0.08308605
115976,-0.40100000,0.05044510
115977,-0.40550000,0.01780415
115978,-0.40550000,-0.01335312
115979,-0.40100000,-0.05341246
115980,-0.39100000,-0.06973294
115981,-0.38150000,-0.10237389
115982,-0.35250000,-0.09495549
115983,-0.30900000,-0.11127596
115984,-0.27550000,-0.15133531
115985,-0.23200000,-0.16023739
115986,-0.17850000,-0.16765579
115987,-0.13550000,-0.16023739
115988,-0.09200000,-0.07863501
115989,-0.05300000,-0.06231454
115990,-0.02400000,-0.06231454
115991,0.00000000,-0.02967359
115992,0.01450000,-0.04599407
115993,0.01450000,-0.03709199
115994,0.01450000,-0.04599407
115995,0.00000000,-0.06231454
115996,0.07750000,-0.06231454
115997,0.06300000,-0.08605341
115998,0.05150000,-0.06231454
115999,0.03400000,-0.07863501
116000,0.01950000,0.08308605
116001,0.00500000,0.48219585
116002,-0.01500000,0.30267062
116003,-0.03250000,-0.09495549
116004,-0.05300000,-0.26557864
116005,-0.07050000,-0.20919881
116006,-0.09050000,-0.11869436
116007,-0.11100000,-0.09495549
116008,-0.12800000,-0.09495549
116009,-0.15150000,-0.11127596
116010,-0.16300000,-0.06973294
116011,-0.17750000,-0.08605341
116012,-0.18600000,-0.09495549
116013,-0.19500000,-0.09495549
116014,-0.20050000,-0.09495549
116015,-0.20050000,-0.06231454
116016,-0.20650000,-0.04599407
116017,-0.21250000,-0.02967359
116018,-0.22100000,-0.02967359
116019,-0.22700000,-0.02967359
116020,-0.23550000,-0.00445104
116021,-0.23850000,0.03412463
116022,-0.24400000,0.09940653
116023,-0.24700000,0.13946588
116024,-0.25000000,0.16468843
116025,-0.24700000,0.20474777
116026,-0.24400000,0.25370920
116027,-0.24150000,0.30267062
116028,-0.23250000,0.32789318
116029,-0.22700000,0.31157270
116030,-0.21500000,0.29525223
116031,-0.20350000,0.27002967
116032,-0.19200000,0.17210682
116033,-0.17450000,0.05786350
116034,-0.15450000,0.01780415
116035,-0.11950000,0.00296736
116036,-0.09050000,-0.00445104
116037,-0.05300000,0.00296736
116038,-0.00950000,0.04154303
116039,0.03100000,0.03412463
116040,0.07200000,0.02522255
116041,0.10650000,0.00296736
116042,0.14400000,0.02522255
116043,0.16750000,0.03412463
116044,0.18750000,0.05044510
116045,0.19950000,0.05044510
116046,0.20800000,0.02522255
116047,0.21100000,0.00296736
116048,0.20800000,-0.02077151
116049,0.19950000,-0.02967359
116050,0.19050000,-0.00445104
116051,0.18200000,0.00296736
116052,0.17900000,-0.00445104
116053,0.17600000,-0.02967359
116054,0.17600000,-0.00445104
116055,0.17900000,-0.01335312
116056,0.19350000,-0.02077151
116057,0.21100000,-0.01335312
116058,0.22850000,-0.00445104
116059,0.26000000,0.00296736
116060,0.29500000,0.00296736
116061,0.33850000,-0.01335312
116062,0.38500000,-0.02077151
116063,0.44550000,0.01038576
116064,0.50650000,0.03412463
116065,0.57300000,0.00296736
116066,0.64550000,0.00296736
116067,0.71250000,0.01038576
116068,0.78750000,0.13946588
116069,0.85700000,0.38427300
116070,0.92100000,0.76706231
116071,0.97900000,0.52225519
116072,1.02350000,0.15578635
116073,1.02350000,-0.07863501
116074,1.02350000,-0.19287834
116075,1.02350000,-0.09495549
116076,1.02350000,-0.05341246
116077,1.02350000,0.00296736
116078,1.02350000,-0.01335312
116079,1.02350000,-0.02967359
116080,1.02350000,-0.05341246
116081,1.00800000,-0.02967359
116082,0.96750000,-0.02967359
116083,0.93250000,-0.04599407
116084,0.89500000,-0.03709199
116085,0.86000000,0.00296736
116086,0.82250000,0.00296736
116087,0.78200000,0.00296736
116088,0.73850000,0.00296736
116089,0.69800000,0.00296736
116090,0.65150000,0.05044510
116091,0.60500000,0.07418398
116092,0.55600000,0.12314540
116093,0.50950000,0.21364985
116094,0.46600000,0.27002967
116095,0.42850000,0.29525223
116096,0.39950000,0.27002967
116097,0.37300000,0.28635015
116098,0.35600000,0.27002967
116099,0.35000000,0.24629080
116100,0.34700000,0.27002967
116101,0.35300000,0.19732938
116102,0.37050000,0.14836795
116103,0.39050000,0.10682493
116104,0.41650000,0.05786350
116105,0.44300000,0.02522255
116106,0.46900000,0.00296736
116107,0.49200000,0.00296736
116108,0.52100000,-0.00445104
116109,0.54150000,-0.02967359
116110,0.55600000,-0.01335312
116111,0.57050000,-0.02967359
116112,0.57600000,-0.00445104
116113,0.57600000,0.01038576
116114,0.57300000,0.03412463
116115,0.57050000,0.03412463
116116,0.55850000,0.03412463
116117,0.53850000,0.03412463
116118,0.51800000,0.02522255
116119,0.48900000,0.01038576
116120,0.45450000,0.01780415
116121,0.41400000,0.00296736
116122,0.37050000,0.00296736
116123,0.31500000,0.00296736
116124,0.25750000,0.00296736
116125,0.19950000,0.00296736
116126,0.13250000,0.00296736
116127,0.06900000,0.00296736
116128,0.00800000,0.00296736
116129,-0.05600000,0.00296736
116130,-0.11650000,0.00296736
116131,-0.17150000,-0.02077151
116132,-0.21800000,-0.02967359
116133,-0.26750000,-0.02967359
116134,-0.30500000,0.00296736
116135,-0.34250000,0.06676558
116136,-0.37450000,0.35163205
116137,-0.40050000,0.66023739
116138,-0.42100000,0.33531157
116139,-0.43550000,0.01038576
116140,-0.45000000,-0.17655786
116141,-0.45850000,-0.15133531
116142,-0.46150000,-0.05341246
116143,-0.46450000,-0.03709199
116144,-0.46450000,-0.06231454
116145,-0.45850000,-0.06231454
116146,-0.45600000,-0.06231454
116147,-0.45000000,-0.03709199
116148,-0.44400000,-0.05341246
116149,-0.43850000,-0.06231454
116150,-0.43550000,-0.06231454
116151,-0.42950000,-0.06231454
116152,-0.42400000,-0.02967359
116153,-0.41800000,-0.01335312
116154,-0.41500000,0.00296736
116155,-0.41250000,0.00296736
116156,-0.41250000,0.01038576
116157,-0.40950000,0.05044510
116158,-0.40950000,0.13204748
116159,-0.40950000,0.19732938
116160,-0.40950000,0.22997033
116161,-0.41250000,0.22997033
116162,-0.40650000,0.23738872
116163,-0.40650000,0.27893175
116164,-0.40050000,0.30267062
116165,-0.38900000,0.31899110
116166,-0.38050000,0.27893175
116167,-0.36000000,0.18842730
116168,-0.33100000,0.10682493
116169,-0.29650000,0.08308605
116170,-0.25300000,0.01780415
116171,-0.20650000,-0.02967359
116172,-0.15700000,-0.01335312
116173,-0.10500000,0.02670623
116174,-0.05600000,0.04154303
116175,-0.00650000,0.08308605
116176,0.03100000,0.09050445
116177,0.06600000,0.06676558
116178,0.09200000,0.08308605
116179,0.10950000,0.09940653
116180,0.12400000,0.18842730
116181,0.12700000,0.18842730
116182,0.12400000,0.19732938
116183,0.12100000,0.19732938
116184,0.10950000,0.19732938
116185,0.09800000,0.16468843
116186,0.08350000,0.13204748
116187,0.07200000,0.13204748
116188,0.05450000,0.09050445
116189,0.03700000,0.06676558
116190,0.01950000,0.06676558
116191,0.00500000,0.06676558
116192,-0.01250000,0.06676558
116193,-0.03550000,0.06676558
116194,-0.05000000,0.06676558
116195,-0.06150000,0.06676558
116196,-0.07300000,0.09050445
116197,-0.08500000,0.23738872
116198,-0.09050000,0.61127596
116199,-0.09650000,0.59495549
116200,-0.09950000,0.18842730
116201,-0.09950000,-0.01335312
116202,-0.09950000,-0.13501484
116203,-0.09350000,-0.07863501
116204,-0.08750000,-0.06973294
116205,-0.08200000,-0.08605341
116206,-0.07050000,-0.06973294
116207,-0.06450000,-0.11127596
116208,-0.05850000,-0.06231454
116209,-0.05300000,-0.08605341
116210,-0.04700000,-0.10237389
116211,-0.04700000,-0.06973294
116212,-0.04400000,-0.11127596
116213,-0.04150000,-0.10237389
116214,-0.04400000,-0.06973294
116215,-0.04150000,-0.04599407
116216,-0.04700000,-0.02967359
116217,-0.04400000,-0.02967359
116218,-0.04400000,0.00296736
116219,-0.04400000,0.01038576
116220,-0.05000000,0.07418398
116221,-0.05000000,0.15578635
116222,-0.04700000,0.20474777
116223,-0.05000000,0.19732938
116224,-0.04700000,0.19732938
116225,-0.04400000,0.22106825
116226,-0.04150000,0.21364985
116227,-0.03250000,0.17210682
116228,-0.02100000,0.13204748
116229,-0.00350000,0.08308605
116230,0.01650000,0.01038576
116231,0.05150000,-0.00445104
116232,0.08350000,-0.04599407
116233,0.12400000,-0.07863501
116234,0.16750000,-0.11869436
116235,0.21400000,-0.12759644
116236,0.25450000,-0.12759644
116237,0.29500000,-0.16023739
116238,0.32950000,-0.14391691
116239,0.35600000,-0.11127596
116240,0.37300000,-0.11869436
116241,0.38500000,-0.12759644
116242,0.38750000,-0.15133531
116243,0.38500000,-0.17655786
116244,0.37300000,-0.19287834
116245,0.36150000,-0.22551929
116246,0.35000000,-0.25816024
116247,0.32950000,-0.25816024
116248,0.31500000,-0.29080119
116249,0.29200000,-0.28189911
116250,0.27150000,-0.25816024
